70BCSV 	
// AQ6370D OPTICAL SPECTRUM ANALYZER //                 
30
"CTRWL",1569.500000
"SPAN",  40.000000
"START WL",1549.500000
"STOP WL",1589.500000
"WLFREQ", 0
"REFL",-26.2
"LSCL",10.0
"RESLN",0.050
"AVG",   1
"SMPLAUTO",      1
"SMPL",       4001
"SMPLINTVL",0.0100
"NORMAL"
"MEAS"
"LSUNT",0
"NMSKH","OFF"
"RESCOR",0
"SMOOTH",0
"FIBERTYPE",0
"MEASWL",0
"SWPSPD",1
"NEBWCAL0",    0
"NEBWCAL1",    0
"NEBWCALWL",   0
"RESPARM", 9230
"FREQPARM", 9230




"[TRACE DATA]"
1549.5000,-210.000
1549.5100,-210.000
1549.5200, -77.798
1549.5300, -76.169
1549.5400, -75.254
1549.5500, -72.035
1549.5600,-210.000
1549.5700,-210.000
1549.5800, -74.317
1549.5900,-210.000
1549.6000,-210.000
1549.6100, -77.525
1549.6200, -74.498
1549.6300,-210.000
1549.6400,-210.000
1549.6500,-210.000
1549.6600, -71.651
1549.6700, -69.703
1549.6800, -73.473
1549.6900,-210.000
1549.7000, -78.920
1549.7100,-210.000
1549.7200,-210.000
1549.7300,-210.000
1549.7400, -76.102
1549.7500, -73.826
1549.7600,-210.000
1549.7700, -70.536
1549.7800,-210.000
1549.7900,-210.000
1549.8000,-210.000
1549.8100,-210.000
1549.8200,-210.000
1549.8300, -87.293
1549.8400, -87.688
1549.8500,-210.000
1549.8600, -71.446
1549.8700,-210.000
1549.8800, -71.772
1549.8900, -73.224
1549.9000, -71.118
1549.9100, -71.462
1549.9200,-210.000
1549.9300, -75.144
1549.9400, -77.970
1549.9500, -72.241
1549.9600, -74.511
1549.9700, -72.674
1549.9800, -73.195
1549.9900,-210.000
1550.0000,-210.000
1550.0100,-210.000
1550.0200, -71.118
1550.0300, -71.555
1550.0400,-210.000
1550.0500,-210.000
1550.0600,-210.000
1550.0700,-210.000
1550.0800, -74.673
1550.0900,-210.000
1550.1000, -77.797
1550.1100, -76.490
1550.1200, -76.306
1550.1300, -69.992
1550.1400, -75.144
1550.1500,-210.000
1550.1600, -77.317
1550.1700, -77.897
1550.1800, -75.726
1550.1900,-210.000
1550.2000,-210.000
1550.2100, -75.479
1550.2200, -80.039
1550.2300,-210.000
1550.2400,-210.000
1550.2500, -80.087
1550.2600,-210.000
1550.2700,-210.000
1550.2800, -72.409
1550.2900, -74.451
1550.3000,-210.000
1550.3100, -78.919
1550.3200, -77.022
1550.3300,-210.000
1550.3400, -82.201
1550.3500,-210.000
1550.3600, -74.450
1550.3700, -74.840
1550.3800, -71.846
1550.3900, -71.393
1550.4000, -74.783
1550.4100,-210.000
1550.4200,-210.000
1550.4300, -73.002
1550.4400, -78.211
1550.4500,-210.000
1550.4600,-210.000
1550.4700,-210.000
1550.4800, -80.257
1550.4900, -74.154
1550.5000,-210.000
1550.5100, -70.592
1550.5200,-210.000
1550.5300, -85.229
1550.5400, -73.399
1550.5500,-210.000
1550.5600,-210.000
1550.5700, -75.260
1550.5800,-210.000
1550.5900,-210.000
1550.6000,-210.000
1550.6100, -76.987
1550.6200, -74.303
1550.6300, -75.252
1550.6400, -81.619
1550.6500, -69.801
1550.6600,-210.000
1550.6700, -75.595
1550.6800,-210.000
1550.6900,-210.000
1550.7000, -78.467
1550.7100,-210.000
1550.7200,-210.000
1550.7300,-210.000
1550.7400,-210.000
1550.7500, -71.342
1550.7600, -75.840
1550.7700, -73.435
1550.7800,-210.000
1550.7900, -71.342
1550.8000,-210.000
1550.8100,-210.000
1550.8200,-210.000
1550.8300,-210.000
1550.8400, -74.826
1550.8500, -75.654
1550.8600, -80.037
1550.8700, -78.917
1550.8800, -75.724
1550.8900, -68.673
1550.9000, -71.742
1550.9100, -71.845
1550.9200, -79.339
1550.9300,-210.000
1550.9400, -74.562
1550.9500, -71.530
1550.9600, -74.359
1550.9700, -77.117
1550.9800, -74.140
1550.9900, -74.104
1551.0000, -69.482
1551.0100, -77.021
1551.0200, -76.166
1551.0300, -78.466
1551.0400, -72.703
1551.0500, -76.014
1551.0600,-210.000
1551.0700, -74.140
1551.0800, -72.407
1551.0900, -76.014
1551.1000, -85.904
1551.1100,-210.000
1551.1200,-210.000
1551.1300, -75.419
1551.1400, -73.272
1551.1500, -71.092
1551.1600, -70.245
1551.1700, -73.001
1551.1800, -77.795
1551.1900, -77.968
1551.2000, -80.275
1551.2100, -86.704
1551.2200, -77.315
1551.2300, -87.291
1551.2400, -75.387
1551.2500, -70.551
1551.2600, -76.928
1551.2700, -71.845
1551.2800, -85.228
1551.2900, -72.294
1551.3000, -76.928
1551.3100, -72.103
1551.3200,-210.000
1551.3300, -73.733
1551.3400, -73.256
1551.3500,-210.000
1551.3600, -70.606
1551.3700, -84.128
1551.3800,-210.000
1551.3900,-210.000
1551.4000,-210.000
1551.4100, -70.856
1551.4200, -71.945
1551.4300, -83.251
1551.4400, -72.614
1551.4500, -71.912
1551.4600,-210.000
1551.4700, -73.972
1551.4800, -74.954
1551.4900, -75.141
1551.5000,-210.000
1551.5100,-210.000
1551.5200, -72.031
1551.5300, -73.052
1551.5400, -74.103
1551.5500,-210.000
1551.5600,-210.000
1551.5700, -71.942
1551.5800, -74.732
1551.5900, -82.199
1551.6000, -77.326
1551.6100,-210.000
1551.6200, -81.227
1551.6300, -72.889
1551.6400, -73.119
1551.6500,-210.000
1551.6600, -75.361
1551.6700, -83.455
1551.6800, -72.607
1551.6900, -72.049
1551.7000, -71.115
1551.7100, -88.274
1551.7200, -72.214
1551.7300, -72.954
1551.7400, -69.895
1551.7500, -78.547
1551.7600,-210.000
1551.7700, -78.789
1551.7800, -69.130
1551.7900, -69.951
1551.8000, -74.224
1551.8100, -75.584
1551.8200, -81.226
1551.8300, -74.669
1551.8400, -75.417
1551.8500, -70.298
1551.8600, -72.888
1551.8700, -70.483
1551.8800, -73.212
1551.8900,-210.000
1551.9000, -78.736
1551.9100, -70.818
1551.9200, -72.852
1551.9300, -74.780
1551.9400, -74.953
1551.9500, -75.034
1551.9600,-210.000
1551.9700,-210.000
1551.9800, -70.359
1551.9900, -71.492
1552.0000,-210.000
1552.0100,-210.000
1552.0200, -79.179
1552.0300, -74.151
1552.0400, -75.140
1552.0500, -74.102
1552.0600, -77.151
1552.0700,-210.000
1552.0800,-210.000
1552.0900, -69.559
1552.1000, -74.128
1552.1100, -76.570
1552.1200, -71.441
1552.1300, -76.444
1552.1400, -72.605
1552.1500, -84.710
1552.1600, -70.378
1552.1700, -72.520
1552.1800, -79.849
1552.1900, -72.236
1552.2000, -81.225
1552.2100, -76.242
1552.2200, -70.089
1552.2300, -73.600
1552.2400,-210.000
1552.2500, -77.626
1552.2600,-210.000
1552.2700, -83.666
1552.2800, -75.193
1552.2900, -73.866
1552.3000, -73.219
1552.3100, -73.254
1552.3200,-210.000
1552.3300,-210.000
1552.3400, -69.950
1552.3500, -78.788
1552.3600,-210.000
1552.3700,-210.000
1552.3800,-210.000
1552.3900,-210.000
1552.4000, -86.700
1552.4100, -73.653
1552.4200, -76.371
1552.4300, -71.939
1552.4400, -74.729
1552.4500,-210.000
1552.4600, -71.620
1552.4700, -74.298
1552.4800, -70.699
1552.4900, -73.111
1552.5000, -73.466
1552.5100, -75.514
1552.5200, -82.992
1552.5300,-210.000
1552.5400,-210.000
1552.5500, -71.549
1552.5600, -71.211
1552.5700, -74.491
1552.5800, -74.452
1552.5900, -75.032
1552.6000, -75.010
1552.6100,-210.000
1552.6200, -74.828
1552.6300, -74.100
1552.6400,-210.000
1552.6500, -77.848
1552.6600,-210.000
1552.6700, -69.592
1552.6800, -71.254
1552.6900, -72.028
1552.7000, -74.957
1552.7100, -74.052
1552.7200, -76.484
1552.7300, -76.821
1552.7400, -73.818
1552.7500, -73.048
1552.7600, -72.501
1552.7700,-210.000
1552.7800,-210.000
1552.7900, -75.382
1552.8000, -70.855
1552.8100, -72.337
1552.8200, -72.345
1552.8300, -74.666
1552.8400, -69.551
1552.8500, -69.440
1552.8600, -75.869
1552.8700, -73.598
1552.8800, -75.130
1552.8900,-210.000
1552.9000,-210.000
1552.9100, -75.246
1552.9200, -73.729
1552.9300, -73.322
1552.9400, -73.768
1552.9500,-210.000
1552.9600, -72.577
1552.9700, -72.922
1552.9800, -74.354
1552.9900, -73.818
1553.0000, -71.039
1553.0100, -69.892
1553.0200,-210.000
1553.0300, -74.557
1553.0400,-210.000
1553.0500, -75.589
1553.0600, -79.499
1553.0700, -76.514
1553.0800, -69.910
1553.0900, -71.966
1553.1000, -78.204
1553.1100,-210.000
1553.1200,-210.000
1553.1300, -74.450
1553.1400, -72.789
1553.1500, -71.086
1553.1600, -69.033
1553.1700, -71.014
1553.1800, -70.061
1553.1900, -90.754
1553.2000, -73.772
1553.2100,-210.000
1553.2200, -74.296
1553.2300, -79.456
1553.2400, -73.640
1553.2500,-210.000
1553.2600, -77.411
1553.2700, -78.875
1553.2800, -81.445
1553.2900, -72.241
1553.3000, -69.685
1553.3100, -76.400
1553.3200, -76.160
1553.3300, -69.873
1553.3400, -69.314
1553.3500, -83.246
1553.3600, -74.610
1553.3700, -74.443
1553.3800, -73.470
1553.3900, -75.136
1553.4000, -71.233
1553.4100, -69.609
1553.4200,-210.000
1553.4300, -71.061
1553.4400,-210.000
1553.4500, -72.271
1553.4600,-210.000
1553.4700, -79.021
1553.4800, -81.680
1553.4900, -72.466
1553.5000,-210.000
1553.5100, -74.049
1553.5200, -71.061
1553.5300, -71.362
1553.5400, -74.664
1553.5500, -75.832
1553.5600, -70.671
1553.5700,-210.000
1553.5800, -78.313
1553.5900, -76.829
1553.6000, -76.092
1553.6100, -71.596
1553.6200, -71.057
1553.6300, -85.896
1553.6400, -75.081
1553.6500,-210.000
1553.6600, -71.905
1553.6700, -69.058
1553.6800, -68.543
1553.6900, -70.636
1553.7000,-210.000
1553.7100, -74.440
1553.7200, -70.675
1553.7300, -75.378
1553.7400, -73.803
1553.7500,-210.000
1553.7600, -75.467
1553.7700, -77.205
1553.7800, -75.767
1553.7900, -71.315
1553.8000, -71.594
1553.8100, -69.837
1553.8200, -69.337
1553.8300, -69.837
1553.8400, -70.495
1553.8500, -94.508
1553.8600, -76.224
1553.8700, -72.236
1553.8800,-210.000
1553.8900, -72.736
1553.9000, -73.042
1553.9100, -73.382
1553.9200, -80.421
1553.9300, -77.057
1553.9400, -74.190
1553.9500, -71.589
1553.9600, -70.111
1553.9700, -86.478
1553.9800, -71.253
1553.9900, -71.732
1554.0000, -71.031
1554.0100, -75.711
1554.0200, -76.812
1554.0300, -71.227
1554.0400, -78.090
1554.0500,-210.000
1554.0600,-210.000
1554.0700, -74.000
1554.0800, -73.258
1554.0900, -73.918
1554.1000, -76.152
1554.1100,-210.000
1554.1200, -83.238
1554.1300, -89.535
1554.1400, -70.747
1554.1500, -70.089
1554.1600, -75.181
1554.1700, -71.671
1554.1800, -70.144
1554.1900, -79.324
1554.2000, -73.529
1554.2100, -78.418
1554.2200, -74.493
1554.2300, -70.212
1554.2400,-210.000
1554.2500, -72.362
1554.2600, -71.004
1554.2700, -75.951
1554.2800,-210.000
1554.2900, -76.390
1554.3000, -84.235
1554.3100, -73.176
1554.3200, -74.716
1554.3300, -73.098
1554.3400, -72.873
1554.3500, -70.686
1554.3600, -71.453
1554.3700, -74.815
1554.3800, -75.056
1554.3900, -77.877
1554.4000, -74.708
1554.4100, -73.563
1554.4200, -69.958
1554.4300, -75.776
1554.4400, -71.727
1554.4500, -72.196
1554.4600, -73.415
1554.4700, -88.938
1554.4800, -73.135
1554.4900, -70.332
1554.5000, -69.426
1554.5100, -68.120
1554.5200,-210.000
1554.5300, -77.049
1554.5400,-210.000
1554.5500, -70.664
1554.5600, -71.901
1554.5700, -70.680
1554.5800,-210.000
1554.5900, -75.846
1554.6000, -75.819
1554.6100, -71.806
1554.6200, -71.194
1554.6300, -71.951
1554.6400, -72.980
1554.6500, -73.952
1554.6600,-210.000
1554.6700, -71.700
1554.6800, -72.162
1554.6900, -72.285
1554.7000, -69.839
1554.7100, -70.298
1554.7200, -70.623
1554.7300, -71.921
1554.7400, -74.337
1554.7500, -85.206
1554.7600, -72.904
1554.7700, -71.554
1554.7800, -69.856
1554.7900, -70.738
1554.8000, -71.691
1554.8100, -72.559
1554.8200, -76.352
1554.8300, -71.192
1554.8400, -72.709
1554.8500, -80.409
1554.8600, -70.239
1554.8700,-210.000
1554.8800, -73.040
1554.8900, -83.645
1554.9000, -69.164
1554.9100, -72.866
1554.9200, -72.757
1554.9300, -68.333
1554.9400, -70.255
1554.9500, -74.585
1554.9600, -68.343
1554.9700, -76.811
1554.9800, -69.666
1554.9900, -69.853
1555.0000, -74.756
1555.0100, -69.500
1555.0200, -72.864
1555.0300,-210.000
1555.0400,-210.000
1555.0500, -72.832
1555.0600,-210.000
1555.0700, -77.971
1555.0800,-210.000
1555.0900,-210.000
1555.1000, -73.746
1555.1100, -74.482
1555.1200, -72.525
1555.1300, -74.482
1555.1400, -72.457
1555.1500, -70.807
1555.1600, -84.101
1555.1700, -80.405
1555.1800, -71.549
1555.1900, -75.278
1555.2000, -70.672
1555.2100, -69.966
1555.2200, -75.557
1555.2300, -73.048
1555.2400,-210.000
1555.2500, -75.230
1555.2600, -76.641
1555.2700,-210.000
1555.2800, -71.897
1555.2900, -74.810
1555.3000, -69.549
1555.3100, -67.101
1555.3200, -69.021
1555.3300, -69.995
1555.3400, -73.782
1555.3500, -73.660
1555.3600, -68.489
1555.3700, -79.822
1555.3800, -78.179
1555.3900, -76.058
1555.4000, -70.614
1555.4100, -71.013
1555.4200, -71.519
1555.4300, -78.886
1555.4400, -73.123
1555.4500, -70.889
1555.4600, -69.721
1555.4700, -73.633
1555.4800, -75.907
1555.4900, -72.342
1555.5000, -73.054
1555.5100,-210.000
1555.5200,-210.000
1555.5300, -69.563
1555.5400, -91.856
1555.5500, -71.709
1555.5600, -79.471
1555.5700, -72.519
1555.5800, -70.148
1555.5900, -73.121
1555.6000, -73.779
1555.6100, -72.089
1555.6200, -68.826
1555.6300, -72.309
1555.6400, -73.121
1555.6500, -71.502
1555.6600, -69.618
1555.6700, -75.218
1555.6800, -72.644
1555.6900, -72.549
1555.7000, -71.162
1555.7100, -72.987
1555.7200, -72.490
1555.7300, -75.906
1555.7400, -70.300
1555.7500, -74.269
1555.7600, -74.060
1555.7700, -70.308
1555.7800, -70.390
1555.7900, -79.429
1555.8000, -69.883
1555.8100, -73.433
1555.8200,-210.000
1555.8300, -71.765
1555.8400, -72.519
1555.8500, -68.628
1555.8600, -69.992
1555.8700, -70.655
1555.8800, -75.289
1555.8900, -75.041
1555.9000, -86.671
1555.9100, -70.318
1555.9200, -70.263
1555.9300, -72.277
1555.9400, -68.811
1555.9500, -79.286
1555.9600, -72.507
1555.9700, -72.245
1555.9800, -70.326
1555.9900, -70.188
1556.0000, -72.954
1556.0100, -71.517
1556.0200, -73.819
1556.0300, -73.401
1556.0400, -71.999
1556.0500, -70.867
1556.0600, -80.613
1556.0700, -80.053
1556.0800, -74.477
1556.0900, -72.033
1556.1000, -77.707
1556.1100, -68.856
1556.1200,-210.000
1556.1300, -69.939
1556.1400, -72.887
1556.1500, -73.007
1556.1600, -69.958
1556.1700, -72.795
1556.1800, -73.528
1556.1900, -68.461
1556.2000, -67.668
1556.2100, -88.925
1556.2200, -72.433
1556.2300, -72.183
1556.2400, -69.307
1556.2500, -73.820
1556.2600, -73.045
1556.2700, -74.750
1556.2800, -72.750
1556.2900, -72.179
1556.3000, -70.690
1556.3100, -73.240
1556.3200,-210.000
1556.3300,-210.000
1556.3400, -73.549
1556.3500,-210.000
1556.3600, -71.421
1556.3700, -73.976
1556.3800, -75.164
1556.3900, -72.045
1556.4000, -69.978
1556.4100, -72.775
1556.4200, -70.582
1556.4300, -71.912
1556.4400, -70.890
1556.4500, -69.020
1556.4600, -73.983
1556.4700, -70.145
1556.4800, -68.945
1556.4900, -68.790
1556.5000, -72.031
1556.5100, -72.924
1556.5200, -74.239
1556.5300, -71.085
1556.5400, -71.967
1556.5500, -68.468
1556.5600, -69.252
1556.5700, -70.577
1556.5800, -71.854
1556.5900, -69.380
1556.6000, -70.990
1556.6100, -69.739
1556.6200, -73.514
1556.6300, -71.311
1556.6400, -68.918
1556.6500, -69.158
1556.6600, -71.916
1556.6700, -94.489
1556.6800, -69.532
1556.6900, -77.297
1556.7000, -70.648
1556.7100, -71.740
1556.7200, -68.063
1556.7300, -69.670
1556.7400, -70.233
1556.7500, -71.854
1556.7600, -71.589
1556.7700, -70.692
1556.7800, -68.416
1556.7900, -70.215
1556.8000, -70.626
1556.8100, -67.733
1556.8200, -70.782
1556.8300, -71.740
1556.8400, -73.704
1556.8500, -68.916
1556.8600, -71.165
1556.8700, -69.498
1556.8800, -69.399
1556.8900, -70.771
1556.9000, -74.255
1556.9100, -73.047
1556.9200, -71.601
1556.9300, -71.891
1556.9400, -70.805
1556.9500, -71.896
1556.9600, -69.705
1556.9700, -73.282
1556.9800, -67.809
1556.9900, -73.704
1557.0000, -70.941
1557.0100, -67.979
1557.0200, -72.217
1557.0300, -69.009
1557.0400, -73.514
1557.0500, -69.432
1557.0600, -70.146
1557.0700, -69.286
1557.0800, -74.375
1557.0900, -71.142
1557.1000, -70.332
1557.1100, -67.973
1557.1200, -70.477
1557.1300, -67.942
1557.1400, -68.855
1557.1500, -74.323
1557.1600, -70.412
1557.1700, -71.575
1557.1800, -72.481
1557.1900, -70.477
1557.2000, -68.288
1557.2100, -72.237
1557.2200, -69.433
1557.2300, -72.327
1557.2400, -70.898
1557.2500, -68.787
1557.2600, -69.834
1557.2700, -69.098
1557.2800, -71.283
1557.2900, -75.695
1557.3000, -74.753
1557.3100, -69.310
1557.3200, -71.273
1557.3300, -67.530
1557.3400, -68.386
1557.3500, -72.063
1557.3600, -69.453
1557.3700, -71.036
1557.3800, -68.150
1557.3900, -71.296
1557.4000, -67.911
1557.4100, -68.122
1557.4200, -71.341
1557.4300, -69.176
1557.4400, -71.364
1557.4500, -70.056
1557.4600, -69.697
1557.4700, -67.728
1557.4800, -70.095
1557.4900, -69.145
1557.5000, -68.017
1557.5100, -69.393
1557.5200, -71.113
1557.5300, -72.754
1557.5400, -72.554
1557.5500, -71.088
1557.5600, -68.559
1557.5700, -70.946
1557.5800, -73.888
1557.5900, -72.863
1557.6000, -72.279
1557.6100, -67.696
1557.6200, -68.241
1557.6300, -71.313
1557.6400, -71.409
1557.6500, -69.049
1557.6600, -68.569
1557.6700, -70.656
1557.6800, -76.992
1557.6900, -68.978
1557.7000, -67.660
1557.7100, -68.560
1557.7200, -74.027
1557.7300, -73.298
1557.7400, -69.882
1557.7500, -69.301
1557.7600, -70.810
1557.7700, -76.629
1557.7800, -71.322
1557.7900, -70.035
1557.8000, -67.794
1557.8100, -68.317
1557.8200, -70.475
1557.8300, -70.376
1557.8400, -67.967
1557.8500, -67.827
1557.8600, -70.214
1557.8700, -69.197
1557.8800, -69.848
1557.8900, -68.315
1557.9000, -66.910
1557.9100, -69.141
1557.9200, -71.545
1557.9300, -72.822
1557.9400, -68.475
1557.9500, -68.110
1557.9600, -71.693
1557.9700, -66.683
1557.9800, -70.013
1557.9900, -69.613
1558.0000, -69.751
1558.0100, -75.761
1558.0200, -70.908
1558.0300, -69.093
1558.0400, -69.797
1558.0500, -68.700
1558.0600, -68.972
1558.0700, -68.031
1558.0800, -69.313
1558.0900, -70.139
1558.1000, -66.833
1558.1100, -67.377
1558.1200, -68.978
1558.1300, -69.613
1558.1400, -68.790
1558.1500, -68.437
1558.1600, -74.979
1558.1700, -69.734
1558.1800, -71.685
1558.1900, -67.926
1558.2000, -67.945
1558.2100, -70.449
1558.2200, -69.345
1558.2300, -69.759
1558.2400, -69.155
1558.2500, -69.794
1558.2600, -69.342
1558.2700, -69.942
1558.2800, -70.344
1558.2900, -68.409
1558.3000, -66.319
1558.3100, -67.046
1558.3200, -68.538
1558.3300, -67.064
1558.3400, -69.073
1558.3500, -68.540
1558.3600, -68.969
1558.3700, -69.261
1558.3800, -70.027
1558.3900, -68.527
1558.4000, -66.959
1558.4100, -66.302
1558.4200, -66.395
1558.4300, -68.355
1558.4400, -67.912
1558.4500, -68.219
1558.4600, -68.041
1558.4700, -66.177
1558.4800, -67.627
1558.4900, -70.293
1558.5000, -67.962
1558.5100, -68.029
1558.5200, -67.134
1558.5300, -67.033
1558.5400, -68.182
1558.5500, -67.444
1558.5600, -66.800
1558.5700, -68.818
1558.5800, -66.640
1558.5900, -69.242
1558.6000, -66.020
1558.6100, -69.801
1558.6200, -68.238
1558.6300, -68.305
1558.6400, -68.606
1558.6500, -67.970
1558.6600, -66.089
1558.6700, -68.461
1558.6800, -69.763
1558.6900, -68.161
1558.7000, -67.897
1558.7100, -67.488
1558.7200, -66.862
1558.7300, -69.757
1558.7400, -67.747
1558.7500, -68.083
1558.7600, -68.508
1558.7700, -65.740
1558.7800, -68.281
1558.7900, -67.785
1558.8000, -68.001
1558.8100, -68.203
1558.8200, -68.060
1558.8300, -71.327
1558.8400, -67.745
1558.8500, -68.589
1558.8600, -68.202
1558.8700, -68.814
1558.8800, -68.073
1558.8900, -68.775
1558.9000, -68.183
1558.9100, -70.111
1558.9200, -70.654
1558.9300, -67.243
1558.9400, -67.884
1558.9500, -67.070
1558.9600, -69.204
1558.9700, -68.169
1558.9800, -66.839
1558.9900, -68.099
1559.0000, -68.010
1559.0100, -67.231
1559.0200, -68.425
1559.0300, -68.849
1559.0400, -65.825
1559.0500, -66.633
1559.0600, -65.825
1559.0700, -66.572
1559.0800, -67.356
1559.0900, -67.787
1559.1000, -65.574
1559.1100, -66.908
1559.1200, -67.491
1559.1300, -66.597
1559.1400, -66.168
1559.1500, -65.533
1559.1600, -65.896
1559.1700, -68.529
1559.1800, -68.104
1559.1900, -67.014
1559.2000, -69.491
1559.2100, -68.723
1559.2200, -65.447
1559.2300, -67.959
1559.2400, -66.510
1559.2500, -66.826
1559.2600, -66.947
1559.2700, -67.361
1559.2800, -66.584
1559.2900, -67.705
1559.3000, -67.749
1559.3100, -69.045
1559.3200, -67.057
1559.3300, -65.760
1559.3400, -66.918
1559.3500, -66.478
1559.3600, -67.838
1559.3700, -65.891
1559.3800, -67.728
1559.3900, -68.151
1559.4000, -66.440
1559.4100, -65.764
1559.4200, -67.980
1559.4300, -67.305
1559.4400, -67.108
1559.4500, -68.761
1559.4600, -67.039
1559.4700, -67.792
1559.4800, -68.631
1559.4900, -65.891
1559.5000, -67.204
1559.5100, -66.581
1559.5200, -66.210
1559.5300, -66.311
1559.5400, -65.992
1559.5500, -66.902
1559.5600, -65.309
1559.5700, -66.472
1559.5800, -65.866
1559.5900, -68.538
1559.6000, -67.276
1559.6100, -66.047
1559.6200, -67.316
1559.6300, -67.294
1559.6400, -66.641
1559.6500, -65.932
1559.6600, -66.951
1559.6700, -65.873
1559.6800, -65.732
1559.6900, -66.404
1559.7000, -65.361
1559.7100, -65.662
1559.7200, -65.656
1559.7300, -65.251
1559.7400, -65.693
1559.7500, -65.465
1559.7600, -66.289
1559.7700, -66.861
1559.7800, -66.463
1559.7900, -65.671
1559.8000, -66.943
1559.8100, -65.764
1559.8200, -65.999
1559.8300, -65.118
1559.8400, -65.419
1559.8500, -65.505
1559.8600, -65.225
1559.8700, -66.395
1559.8800, -66.059
1559.8900, -66.060
1559.9000, -65.894
1559.9100, -66.495
1559.9200, -65.887
1559.9300, -65.600
1559.9400, -67.193
1559.9500, -65.112
1559.9600, -66.168
1559.9700, -64.971
1559.9800, -65.166
1559.9900, -66.901
1560.0000, -66.083
1560.0100, -65.714
1560.0200, -65.939
1560.0300, -65.280
1560.0400, -65.811
1560.0500, -64.617
1560.0600, -65.458
1560.0700, -64.786
1560.0800, -63.710
1560.0900, -64.423
1560.1000, -64.487
1560.1100, -64.946
1560.1200, -64.783
1560.1300, -65.250
1560.1400, -66.293
1560.1500, -64.506
1560.1600, -64.408
1560.1700, -64.450
1560.1800, -64.901
1560.1900, -65.235
1560.2000, -65.459
1560.2100, -64.678
1560.2200, -64.525
1560.2300, -65.186
1560.2400, -64.228
1560.2500, -65.337
1560.2600, -65.748
1560.2700, -65.553
1560.2800, -64.773
1560.2900, -64.684
1560.3000, -64.602
1560.3100, -64.434
1560.3200, -64.122
1560.3300, -64.605
1560.3400, -63.671
1560.3500, -63.463
1560.3600, -64.449
1560.3700, -64.508
1560.3800, -64.278
1560.3900, -64.009
1560.4000, -63.437
1560.4100, -64.151
1560.4200, -64.854
1560.4300, -63.652
1560.4400, -63.541
1560.4500, -64.175
1560.4600, -64.122
1560.4700, -63.635
1560.4800, -64.026
1560.4900, -64.252
1560.5000, -64.438
1560.5100, -64.408
1560.5200, -64.482
1560.5300, -64.232
1560.5400, -63.963
1560.5500, -63.354
1560.5600, -64.575
1560.5700, -64.470
1560.5800, -64.779
1560.5900, -64.393
1560.6000, -64.433
1560.6100, -63.760
1560.6200, -63.346
1560.6300, -63.737
1560.6400, -65.032
1560.6500, -64.722
1560.6600, -63.530
1560.6700, -64.267
1560.6800, -63.943
1560.6900, -64.202
1560.7000, -63.453
1560.7100, -63.480
1560.7200, -63.883
1560.7300, -62.986
1560.7400, -63.634
1560.7500, -63.665
1560.7600, -63.705
1560.7700, -63.148
1560.7800, -62.423
1560.7900, -62.789
1560.8000, -63.609
1560.8100, -63.393
1560.8200, -63.503
1560.8300, -63.991
1560.8400, -63.154
1560.8500, -63.939
1560.8600, -63.248
1560.8700, -62.780
1560.8800, -63.188
1560.8900, -62.895
1560.9000, -63.224
1560.9100, -63.049
1560.9200, -63.445
1560.9300, -62.299
1560.9400, -62.791
1560.9500, -63.534
1560.9600, -63.329
1560.9700, -63.324
1560.9800, -63.469
1560.9900, -62.666
1561.0000, -63.023
1561.0100, -62.322
1561.0200, -63.051
1561.0300, -62.742
1561.0400, -62.638
1561.0500, -62.796
1561.0600, -62.410
1561.0700, -63.023
1561.0800, -62.892
1561.0900, -62.822
1561.1000, -62.298
1561.1100, -62.645
1561.1200, -62.545
1561.1300, -62.547
1561.1400, -62.707
1561.1500, -62.779
1561.1600, -62.382
1561.1700, -61.865
1561.1800, -62.746
1561.1900, -62.138
1561.2000, -62.253
1561.2100, -62.108
1561.2200, -62.515
1561.2300, -62.770
1561.2400, -62.006
1561.2500, -62.267
1561.2600, -62.148
1561.2700, -62.381
1561.2800, -61.909
1561.2900, -61.798
1561.3000, -61.213
1561.3100, -61.932
1561.3200, -61.693
1561.3300, -62.261
1561.3400, -61.856
1561.3500, -62.236
1561.3600, -61.436
1561.3700, -62.283
1561.3800, -61.415
1561.3900, -61.715
1561.4000, -61.833
1561.4100, -61.341
1561.4200, -61.401
1561.4300, -61.530
1561.4400, -61.408
1561.4500, -61.513
1561.4600, -61.640
1561.4700, -61.277
1561.4800, -61.021
1561.4900, -61.206
1561.5000, -61.305
1561.5100, -61.002
1561.5200, -61.141
1561.5300, -60.976
1561.5400, -61.188
1561.5500, -60.924
1561.5600, -61.277
1561.5700, -60.921
1561.5800, -60.825
1561.5900, -61.148
1561.6000, -60.671
1561.6100, -60.849
1561.6200, -60.358
1561.6300, -60.957
1561.6400, -60.616
1561.6500, -60.411
1561.6600, -60.740
1561.6700, -60.570
1561.6800, -60.815
1561.6900, -60.551
1561.7000, -60.524
1561.7100, -60.182
1561.7200, -60.595
1561.7300, -60.205
1561.7400, -60.376
1561.7500, -60.251
1561.7600, -60.247
1561.7700, -60.281
1561.7800, -60.282
1561.7900, -59.895
1561.8000, -59.942
1561.8100, -59.604
1561.8200, -59.873
1561.8300, -60.239
1561.8400, -60.413
1561.8500, -59.938
1561.8600, -59.719
1561.8700, -59.505
1561.8800, -59.813
1561.8900, -59.894
1561.9000, -59.811
1561.9100, -59.598
1561.9200, -59.567
1561.9300, -59.535
1561.9400, -59.585
1561.9500, -59.580
1561.9600, -59.631
1561.9700, -59.632
1561.9800, -58.974
1561.9900, -59.543
1562.0000, -59.306
1562.0100, -58.851
1562.0200, -59.146
1562.0300, -58.991
1562.0400, -59.254
1562.0500, -59.059
1562.0600, -58.707
1562.0700, -58.904
1562.0800, -59.163
1562.0900, -58.994
1562.1000, -58.756
1562.1100, -59.058
1562.1200, -58.515
1562.1300, -58.443
1562.1400, -58.511
1562.1500, -58.645
1562.1600, -58.490
1562.1700, -58.264
1562.1800, -58.347
1562.1900, -58.603
1562.2000, -58.553
1562.2100, -58.256
1562.2200, -58.315
1562.2300, -58.216
1562.2400, -58.136
1562.2500, -58.311
1562.2600, -58.068
1562.2700, -58.147
1562.2800, -58.044
1562.2900, -57.922
1562.3000, -57.703
1562.3100, -57.768
1562.3200, -57.863
1562.3300, -57.788
1562.3400, -57.642
1562.3500, -57.463
1562.3600, -57.539
1562.3700, -57.609
1562.3800, -57.534
1562.3900, -57.646
1562.4000, -57.364
1562.4100, -57.391
1562.4200, -57.383
1562.4300, -57.305
1562.4400, -57.328
1562.4500, -57.354
1562.4600, -56.988
1562.4700, -57.014
1562.4800, -57.099
1562.4900, -56.936
1562.5000, -56.952
1562.5100, -56.714
1562.5200, -56.837
1562.5300, -56.729
1562.5400, -56.721
1562.5500, -56.540
1562.5600, -56.630
1562.5700, -56.654
1562.5800, -56.654
1562.5900, -56.503
1562.6000, -56.604
1562.6100, -56.525
1562.6200, -56.402
1562.6300, -56.312
1562.6400, -56.009
1562.6500, -56.340
1562.6600, -56.206
1562.6700, -56.055
1562.6800, -55.980
1562.6900, -56.060
1562.7000, -55.744
1562.7100, -55.931
1562.7200, -55.870
1562.7300, -55.804
1562.7400, -55.681
1562.7500, -55.803
1562.7600, -55.649
1562.7700, -55.656
1562.7800, -55.373
1562.7900, -55.447
1562.8000, -55.330
1562.8100, -55.405
1562.8200, -55.285
1562.8300, -55.285
1562.8400, -55.250
1562.8500, -54.979
1562.8600, -55.111
1562.8700, -54.928
1562.8800, -54.934
1562.8900, -54.798
1562.9000, -54.958
1562.9100, -54.749
1562.9200, -54.592
1562.9300, -54.662
1562.9400, -54.582
1562.9500, -54.460
1562.9600, -54.457
1562.9700, -54.322
1562.9800, -54.229
1562.9900, -54.222
1563.0000, -54.194
1563.0100, -54.048
1563.0200, -54.228
1563.0300, -54.075
1563.0400, -53.928
1563.0500, -53.856
1563.0600, -53.677
1563.0700, -53.852
1563.0800, -53.692
1563.0900, -53.533
1563.1000, -53.478
1563.1100, -53.568
1563.1200, -53.428
1563.1300, -53.405
1563.1400, -53.151
1563.1500, -53.156
1563.1600, -53.080
1563.1700, -52.998
1563.1800, -52.818
1563.1900, -52.776
1563.2000, -52.629
1563.2100, -52.630
1563.2200, -52.538
1563.2300, -52.659
1563.2400, -52.499
1563.2500, -52.395
1563.2600, -52.268
1563.2700, -52.184
1563.2800, -52.179
1563.2900, -51.833
1563.3000, -51.942
1563.3100, -51.793
1563.3200, -51.912
1563.3300, -51.775
1563.3400, -51.653
1563.3500, -51.364
1563.3600, -51.087
1563.3700, -51.176
1563.3800, -51.174
1563.3900, -51.223
1563.4000, -51.112
1563.4100, -50.795
1563.4200, -50.782
1563.4300, -50.775
1563.4400, -50.523
1563.4500, -50.506
1563.4600, -50.376
1563.4700, -50.030
1563.4800, -50.084
1563.4900, -49.966
1563.5000, -49.899
1563.5100, -49.936
1563.5200, -49.888
1563.5300, -49.770
1563.5400, -49.633
1563.5500, -49.397
1563.5600, -49.220
1563.5700, -49.033
1563.5800, -48.797
1563.5900, -48.607
1563.6000, -48.681
1563.6100, -48.543
1563.6200, -48.618
1563.6300, -48.489
1563.6400, -48.524
1563.6500, -48.401
1563.6600, -48.064
1563.6700, -48.231
1563.6800, -48.013
1563.6900, -47.997
1563.7000, -48.090
1563.7100, -47.612
1563.7200, -47.548
1563.7300, -47.401
1563.7400, -47.501
1563.7500, -47.264
1563.7600, -47.028
1563.7700, -47.041
1563.7800, -46.603
1563.7900, -46.017
1563.8000, -45.736
1563.8100, -46.014
1563.8200, -46.055
1563.8300, -46.219
1563.8400, -46.320
1563.8500, -46.189
1563.8600, -46.062
1563.8700, -45.734
1563.8800, -45.457
1563.8900, -45.194
1563.9000, -45.196
1563.9100, -44.987
1563.9200, -44.777
1563.9300, -44.921
1563.9400, -44.468
1563.9500, -44.342
1563.9600, -44.380
1563.9700, -43.734
1563.9800, -43.396
1563.9900, -43.245
1564.0000, -42.999
1564.0100, -42.740
1564.0200, -43.048
1564.0300, -42.780
1564.0400, -42.492
1564.0500, -42.575
1564.0600, -42.594
1564.0700, -42.856
1564.0800, -42.661
1564.0900, -42.401
1564.1000, -42.405
1564.1100, -42.457
1564.1200, -42.054
1564.1300, -41.867
1564.1400, -41.652
1564.1500, -41.420
1564.1600, -40.584
1564.1700, -39.188
1564.1800, -36.521
1564.1900, -32.441
1564.2000, -29.108
1564.2100, -26.105
1564.2200, -23.736
1564.2300, -22.399
1564.2400, -21.154
1564.2500, -19.669
1564.2600, -18.803
1564.2700, -17.591
1564.2800, -16.754
1564.2900, -18.364
1564.3000, -19.277
1564.3100, -21.153
1564.3200, -26.787
1564.3300, -32.175
1564.3400, -33.786
1564.3500, -36.024
1564.3600, -37.672
1564.3700, -38.917
1564.3800, -39.654
1564.3900, -40.264
1564.4000, -40.320
1564.4100, -40.174
1564.4200, -40.265
1564.4300, -40.710
1564.4400, -40.382
1564.4500, -40.455
1564.4600, -40.759
1564.4700, -40.752
1564.4800, -40.929
1564.4900, -41.209
1564.5000, -40.990
1564.5100, -41.189
1564.5200, -41.053
1564.5300, -41.338
1564.5400, -41.769
1564.5500, -42.192
1564.5600, -42.299
1564.5700, -42.937
1564.5800, -43.208
1564.5900, -43.054
1564.6000, -43.168
1564.6100, -42.972
1564.6200, -42.531
1564.6300, -42.760
1564.6400, -42.753
1564.6500, -42.988
1564.6600, -43.414
1564.6700, -43.896
1564.6800, -43.949
1564.6900, -44.263
1564.7000, -44.510
1564.7100, -44.856
1564.7200, -44.704
1564.7300, -44.378
1564.7400, -44.524
1564.7500, -44.844
1564.7600, -44.889
1564.7700, -44.892
1564.7800, -45.097
1564.7900, -45.044
1564.8000, -45.179
1564.8100, -45.714
1564.8200, -45.395
1564.8300, -45.883
1564.8400, -46.266
1564.8500, -46.272
1564.8600, -46.448
1564.8700, -46.538
1564.8800, -46.738
1564.8900, -46.949
1564.9000, -47.059
1564.9100, -47.201
1564.9200, -47.450
1564.9300, -47.171
1564.9400, -47.511
1564.9500, -47.773
1564.9600, -47.759
1564.9700, -47.802
1564.9800, -47.811
1564.9900, -47.951
1565.0000, -48.086
1565.0100, -48.307
1565.0200, -48.382
1565.0300, -48.170
1565.0400, -48.104
1565.0500, -48.239
1565.0600, -48.594
1565.0700, -48.729
1565.0800, -48.970
1565.0900, -48.772
1565.1000, -48.950
1565.1100, -49.328
1565.1200, -49.443
1565.1300, -49.595
1565.1400, -49.690
1565.1500, -50.015
1565.1600, -50.166
1565.1700, -50.194
1565.1800, -50.156
1565.1900, -50.349
1565.2000, -50.396
1565.2100, -50.740
1565.2200, -50.651
1565.2300, -50.846
1565.2400, -51.010
1565.2500, -51.024
1565.2600, -51.309
1565.2700, -51.501
1565.2800, -51.545
1565.2900, -51.679
1565.3000, -51.911
1565.3100, -51.807
1565.3200, -51.904
1565.3300, -51.938
1565.3400, -52.010
1565.3500, -52.063
1565.3600, -52.191
1565.3700, -52.366
1565.3800, -52.333
1565.3900, -52.336
1565.4000, -52.510
1565.4100, -52.404
1565.4200, -52.640
1565.4300, -52.618
1565.4400, -52.915
1565.4500, -52.986
1565.4600, -52.878
1565.4700, -53.022
1565.4800, -53.251
1565.4900, -53.132
1565.5000, -53.240
1565.5100, -53.517
1565.5200, -53.459
1565.5300, -53.599
1565.5400, -53.650
1565.5500, -53.801
1565.5600, -53.892
1565.5700, -54.014
1565.5800, -53.950
1565.5900, -54.034
1565.6000, -54.282
1565.6100, -54.013
1565.6200, -54.141
1565.6300, -54.287
1565.6400, -54.521
1565.6500, -54.551
1565.6600, -54.550
1565.6700, -54.801
1565.6800, -54.799
1565.6900, -54.794
1565.7000, -55.034
1565.7100, -55.093
1565.7200, -55.048
1565.7300, -55.018
1565.7400, -55.200
1565.7500, -55.373
1565.7600, -55.547
1565.7700, -55.472
1565.7800, -55.553
1565.7900, -55.645
1565.8000, -55.572
1565.8100, -55.445
1565.8200, -55.664
1565.8300, -55.673
1565.8400, -55.764
1565.8500, -55.941
1565.8600, -56.032
1565.8700, -55.885
1565.8800, -56.228
1565.8900, -55.994
1565.9000, -56.036
1565.9100, -56.194
1565.9200, -56.301
1565.9300, -56.205
1565.9400, -55.999
1565.9500, -56.364
1565.9600, -56.418
1565.9700, -56.408
1565.9800, -56.381
1565.9900, -56.486
1566.0000, -56.686
1566.0100, -56.749
1566.0200, -56.526
1566.0300, -56.695
1566.0400, -56.804
1566.0500, -56.743
1566.0600, -56.796
1566.0700, -56.773
1566.0800, -57.010
1566.0900, -57.039
1566.1000, -56.987
1566.1100, -57.031
1566.1200, -57.109
1566.1300, -57.297
1566.1400, -57.176
1566.1500, -57.280
1566.1600, -57.342
1566.1700, -57.268
1566.1800, -57.300
1566.1900, -57.519
1566.2000, -57.476
1566.2100, -57.376
1566.2200, -57.521
1566.2300, -57.694
1566.2400, -57.469
1566.2500, -57.722
1566.2600, -57.756
1566.2700, -57.783
1566.2800, -57.804
1566.2900, -57.878
1566.3000, -57.815
1566.3100, -57.915
1566.3200, -57.820
1566.3300, -57.794
1566.3400, -58.143
1566.3500, -58.001
1566.3600, -58.140
1566.3700, -58.173
1566.3800, -58.399
1566.3900, -58.081
1566.4000, -57.926
1566.4100, -58.305
1566.4200, -58.428
1566.4300, -58.406
1566.4400, -58.209
1566.4500, -58.316
1566.4600, -58.302
1566.4700, -58.610
1566.4800, -58.617
1566.4900, -58.493
1566.5000, -58.416
1566.5100, -58.784
1566.5200, -58.831
1566.5300, -58.696
1566.5400, -58.399
1566.5500, -58.675
1566.5600, -58.979
1566.5700, -58.779
1566.5800, -58.815
1566.5900, -58.944
1566.6000, -58.830
1566.6100, -58.871
1566.6200, -58.998
1566.6300, -58.835
1566.6400, -58.966
1566.6500, -59.001
1566.6600, -58.740
1566.6700, -59.089
1566.6800, -59.326
1566.6900, -59.065
1566.7000, -59.268
1566.7100, -59.061
1566.7200, -59.131
1566.7300, -59.237
1566.7400, -59.300
1566.7500, -59.236
1566.7600, -59.306
1566.7700, -59.662
1566.7800, -59.236
1566.7900, -59.469
1566.8000, -59.580
1566.8100, -59.624
1566.8200, -59.888
1566.8300, -59.699
1566.8400, -59.828
1566.8500, -59.440
1566.8600, -59.869
1566.8700, -59.833
1566.8800, -60.031
1566.8900, -59.631
1566.9000, -59.991
1566.9100, -60.087
1566.9200, -59.993
1566.9300, -59.899
1566.9400, -60.127
1566.9500, -59.827
1566.9600, -60.188
1566.9700, -59.977
1566.9800, -59.819
1566.9900, -59.849
1567.0000, -60.116
1567.0100, -59.876
1567.0200, -60.116
1567.0300, -59.866
1567.0400, -59.892
1567.0500, -60.088
1567.0600, -60.164
1567.0700, -60.151
1567.0800, -60.464
1567.0900, -60.800
1567.1000, -60.067
1567.1100, -60.666
1567.1200, -60.957
1567.1300, -60.728
1567.1400, -60.613
1567.1500, -60.667
1567.1600, -61.087
1567.1700, -60.339
1567.1800, -60.758
1567.1900, -60.425
1567.2000, -60.504
1567.2100, -60.787
1567.2200, -60.774
1567.2300, -60.744
1567.2400, -61.144
1567.2500, -60.549
1567.2600, -60.720
1567.2700, -61.009
1567.2800, -60.591
1567.2900, -60.624
1567.3000, -60.759
1567.3100, -61.444
1567.3200, -61.265
1567.3300, -60.997
1567.3400, -60.923
1567.3500, -61.249
1567.3600, -61.246
1567.3700, -60.942
1567.3800, -60.767
1567.3900, -61.195
1567.4000, -61.346
1567.4100, -61.494
1567.4200, -60.987
1567.4300, -61.362
1567.4400, -61.451
1567.4500, -61.545
1567.4600, -61.269
1567.4700, -61.069
1567.4800, -61.185
1567.4900, -61.689
1567.5000, -61.824
1567.5100, -61.442
1567.5200, -61.186
1567.5300, -61.659
1567.5400, -61.758
1567.5500, -61.184
1567.5600, -61.282
1567.5700, -61.634
1567.5800, -61.378
1567.5900, -61.584
1567.6000, -61.787
1567.6100, -62.091
1567.6200, -61.170
1567.6300, -61.500
1567.6400, -61.672
1567.6500, -61.588
1567.6600, -62.023
1567.6700, -61.655
1567.6800, -62.039
1567.6900, -61.573
1567.7000, -61.977
1567.7100, -61.836
1567.7200, -61.763
1567.7300, -61.991
1567.7400, -61.967
1567.7500, -62.046
1567.7600, -62.648
1567.7700, -61.842
1567.7800, -62.194
1567.7900, -62.079
1567.8000, -61.785
1567.8100, -61.867
1567.8200, -62.162
1567.8300, -62.267
1567.8400, -62.187
1567.8500, -61.767
1567.8600, -62.747
1567.8700, -62.971
1567.8800, -62.747
1567.8900, -62.834
1567.9000, -62.168
1567.9100, -62.135
1567.9200, -62.436
1567.9300, -62.771
1567.9400, -62.906
1567.9500, -63.374
1567.9600, -62.951
1567.9700, -62.612
1567.9800, -62.823
1567.9900, -62.256
1568.0000, -62.825
1568.0100, -63.101
1568.0200, -62.804
1568.0300, -63.173
1568.0400, -62.555
1568.0500, -62.808
1568.0600, -63.016
1568.0700, -63.277
1568.0800, -63.172
1568.0900, -62.858
1568.1000, -62.630
1568.1100, -63.275
1568.1200, -63.154
1568.1300, -63.352
1568.1400, -62.963
1568.1500, -63.578
1568.1600, -62.435
1568.1700, -62.828
1568.1800, -63.303
1568.1900, -63.305
1568.2000, -63.015
1568.2100, -63.460
1568.2200, -63.762
1568.2300, -63.259
1568.2400, -63.072
1568.2500, -63.234
1568.2600, -63.565
1568.2700, -63.240
1568.2800, -63.973
1568.2900, -63.656
1568.3000, -63.369
1568.3100, -63.542
1568.3200, -63.151
1568.3300, -63.610
1568.3400, -63.710
1568.3500, -63.145
1568.3600, -63.873
1568.3700, -62.995
1568.3800, -64.627
1568.3900, -64.193
1568.4000, -63.533
1568.4100, -64.234
1568.4200, -64.075
1568.4300, -64.234
1568.4400, -63.814
1568.4500, -64.527
1568.4600, -64.807
1568.4700, -63.836
1568.4800, -64.300
1568.4900, -64.396
1568.5000, -64.305
1568.5100, -64.376
1568.5200, -64.039
1568.5300, -63.884
1568.5400, -64.034
1568.5500, -63.583
1568.5600, -63.701
1568.5700, -63.822
1568.5800, -64.019
1568.5900, -64.126
1568.6000, -64.715
1568.6100, -63.977
1568.6200, -64.208
1568.6300, -64.473
1568.6400, -64.120
1568.6500, -65.171
1568.6600, -63.886
1568.6700, -63.634
1568.6800, -64.851
1568.6900, -65.077
1568.7000, -63.646
1568.7100, -63.413
1568.7200, -63.985
1568.7300, -64.972
1568.7400, -63.792
1568.7500, -64.963
1568.7600, -64.039
1568.7700, -64.401
1568.7800, -64.294
1568.7900, -66.047
1568.8000, -65.008
1568.8100, -64.910
1568.8200, -64.920
1568.8300, -65.258
1568.8400, -63.818
1568.8500, -64.547
1568.8600, -64.061
1568.8700, -64.915
1568.8800, -65.635
1568.8900, -65.030
1568.9000, -65.272
1568.9100, -64.853
1568.9200, -64.184
1568.9300, -64.212
1568.9400, -65.476
1568.9500, -64.730
1568.9600, -65.803
1568.9700, -64.995
1568.9800, -64.222
1568.9900, -64.187
1569.0000, -65.475
1569.0100, -65.701
1569.0200, -64.771
1569.0300, -64.356
1569.0400, -64.955
1569.0500, -64.404
1569.0600, -65.805
1569.0700, -64.996
1569.0800, -64.841
1569.0900, -64.948
1569.1000, -64.553
1569.1100, -63.904
1569.1200, -65.306
1569.1300, -64.744
1569.1400, -66.898
1569.1500, -66.136
1569.1600, -65.047
1569.1700, -65.286
1569.1800, -64.839
1569.1900, -64.741
1569.2000, -65.919
1569.2100, -64.992
1569.2200, -64.525
1569.2300, -64.691
1569.2400, -66.526
1569.2500, -66.691
1569.2600, -64.705
1569.2700, -64.740
1569.2800, -65.351
1569.2900, -65.392
1569.3000, -64.761
1569.3100, -65.263
1569.3200, -66.158
1569.3300, -66.009
1569.3400, -65.807
1569.3500, -65.200
1569.3600, -66.067
1569.3700, -66.181
1569.3800, -64.499
1569.3900, -65.724
1569.4000, -65.221
1569.4100, -65.283
1569.4200, -65.646
1569.4300, -65.833
1569.4400, -65.720
1569.4500, -65.388
1569.4600, -66.567
1569.4700, -65.230
1569.4800, -64.555
1569.4900, -65.547
1569.5000, -66.100
1569.5100, -66.440
1569.5200, -66.344
1569.5300, -65.564
1569.5400, -65.657
1569.5500, -65.462
1569.5600, -64.996
1569.5700, -66.250
1569.5800, -65.952
1569.5900, -65.195
1569.6000, -65.627
1569.6100, -65.085
1569.6200, -65.020
1569.6300, -65.693
1569.6400, -64.857
1569.6500, -66.848
1569.6600, -66.573
1569.6700, -64.997
1569.6800, -66.019
1569.6900, -66.111
1569.7000, -67.279
1569.7100, -67.205
1569.7200, -68.686
1569.7300, -66.544
1569.7400, -65.364
1569.7500, -66.324
1569.7600, -65.814
1569.7700, -65.537
1569.7800, -65.798
1569.7900, -67.024
1569.8000, -65.667
1569.8100, -68.456
1569.8200, -67.319
1569.8300, -66.549
1569.8400, -66.033
1569.8500, -68.205
1569.8600, -65.953
1569.8700, -65.194
1569.8800, -66.570
1569.8900, -65.510
1569.9000, -66.570
1569.9100, -66.405
1569.9200, -66.312
1569.9300, -66.194
1569.9400, -67.531
1569.9500, -65.995
1569.9600, -66.456
1569.9700, -66.301
1569.9800, -66.506
1569.9900, -65.234
1570.0000, -66.188
1570.0100, -67.960
1570.0200, -65.248
1570.0300, -66.885
1570.0400, -66.827
1570.0500, -66.105
1570.0600, -67.211
1570.0700, -69.134
1570.0800, -67.031
1570.0900, -67.363
1570.1000, -67.119
1570.1100, -66.683
1570.1200, -66.301
1570.1300, -67.163
1570.1400, -66.914
1570.1500, -68.044
1570.1600, -66.547
1570.1700, -69.174
1570.1800, -67.823
1570.1900, -67.718
1570.2000, -67.292
1570.2100, -66.973
1570.2200, -66.780
1570.2300, -67.542
1570.2400, -66.572
1570.2500, -66.570
1570.2600, -66.689
1570.2700, -65.943
1570.2800, -72.320
1570.2900, -66.666
1570.3000, -67.017
1570.3100, -66.505
1570.3200, -67.547
1570.3300, -65.695
1570.3400, -68.151
1570.3500, -66.217
1570.3600, -68.332
1570.3700, -69.753
1570.3800, -68.266
1570.3900, -66.295
1570.4000, -65.963
1570.4100, -67.732
1570.4200, -65.248
1570.4300, -66.068
1570.4400, -68.344
1570.4500, -66.926
1570.4600, -66.396
1570.4700, -67.006
1570.4800, -68.073
1570.4900, -67.723
1570.5000, -68.790
1570.5100, -67.168
1570.5200, -68.048
1570.5300, -68.014
1570.5400, -67.864
1570.5500, -66.790
1570.5600, -66.515
1570.5700, -66.704
1570.5800, -69.089
1570.5900, -67.702
1570.6000, -66.492
1570.6100, -66.376
1570.6200, -67.562
1570.6300, -67.380
1570.6400, -67.632
1570.6500, -67.400
1570.6600, -68.064
1570.6700, -68.558
1570.6800, -68.789
1570.6900, -71.031
1570.7000, -68.802
1570.7100, -68.670
1570.7200, -66.744
1570.7300, -68.236
1570.7400, -66.631
1570.7500, -67.129
1570.7600, -68.448
1570.7700, -68.259
1570.7800, -69.039
1570.7900, -69.904
1570.8000, -66.506
1570.8100, -66.290
1570.8200, -66.604
1570.8300, -68.934
1570.8400, -69.121
1570.8500, -68.569
1570.8600, -68.369
1570.8700, -66.752
1570.8800, -67.807
1570.8900, -67.858
1570.9000, -68.741
1570.9100, -66.357
1570.9200, -68.218
1570.9300, -67.364
1570.9400, -71.249
1570.9500, -69.203
1570.9600, -67.427
1570.9700, -66.785
1570.9800, -67.105
1570.9900, -68.774
1571.0000, -67.881
1571.0100, -68.342
1571.0200, -68.679
1571.0300, -67.687
1571.0400, -67.362
1571.0500, -67.765
1571.0600, -68.693
1571.0700, -69.784
1571.0800, -67.393
1571.0900, -69.799
1571.1000, -66.326
1571.1100, -68.159
1571.1200, -67.578
1571.1300, -67.102
1571.1400, -69.749
1571.1500, -67.401
1571.1600, -68.914
1571.1700, -71.225
1571.1800, -70.667
1571.1900, -66.566
1571.2000, -67.042
1571.2100, -67.728
1571.2200, -68.577
1571.2300, -67.075
1571.2400, -67.520
1571.2500, -70.049
1571.2600, -69.462
1571.2700, -69.738
1571.2800, -70.401
1571.2900, -69.553
1571.3000, -68.185
1571.3100, -66.158
1571.3200, -66.894
1571.3300, -67.475
1571.3400, -67.649
1571.3500, -67.486
1571.3600, -67.549
1571.3700, -70.272
1571.3800, -67.831
1571.3900, -67.108
1571.4000, -67.130
1571.4100, -65.937
1571.4200, -66.322
1571.4300, -72.273
1571.4400, -69.721
1571.4500, -68.196
1571.4600, -69.288
1571.4700, -70.169
1571.4800, -66.925
1571.4900, -69.190
1571.5000, -68.823
1571.5100, -76.233
1571.5200, -70.214
1571.5300, -70.396
1571.5400, -69.470
1571.5500, -69.968
1571.5600, -68.524
1571.5700, -67.406
1571.5800, -68.798
1571.5900, -67.604
1571.6000, -70.395
1571.6100, -69.192
1571.6200, -72.265
1571.6300, -68.474
1571.6400, -67.764
1571.6500, -68.087
1571.6600, -67.882
1571.6700, -69.531
1571.6800, -70.965
1571.6900, -67.484
1571.7000, -67.869
1571.7100, -69.561
1571.7200, -66.975
1571.7300, -68.949
1571.7400, -69.720
1571.7500, -69.702
1571.7600, -71.238
1571.7700, -69.436
1571.7800, -68.862
1571.7900, -68.653
1571.8000, -67.365
1571.8100, -69.137
1571.8200, -67.390
1571.8300, -67.612
1571.8400, -69.934
1571.8500, -67.121
1571.8600, -67.476
1571.8700, -72.976
1571.8800,-210.000
1571.8900, -71.213
1571.9000, -70.341
1571.9100, -68.743
1571.9200, -68.994
1571.9300, -69.067
1571.9400, -68.948
1571.9500, -68.657
1571.9600, -66.884
1571.9700, -70.523
1571.9800, -68.074
1571.9900, -67.012
1572.0000, -70.041
1572.0100, -70.083
1572.0200, -71.370
1572.0300, -69.292
1572.0400, -68.900
1572.0500, -67.958
1572.0600, -70.226
1572.0700, -69.872
1572.0800, -67.806
1572.0900, -69.314
1572.1000, -67.295
1572.1100, -69.346
1572.1200, -68.844
1572.1300, -71.058
1572.1400, -70.305
1572.1500, -72.391
1572.1600, -68.766
1572.1700, -70.652
1572.1800, -67.086
1572.1900, -72.528
1572.2000, -69.086
1572.2100, -68.010
1572.2200, -68.604
1572.2300, -69.063
1572.2400, -67.561
1572.2500, -69.393
1572.2600, -80.685
1572.2700, -72.803
1572.2800, -69.787
1572.2900, -73.348
1572.3000, -71.878
1572.3100, -70.385
1572.3200, -67.994
1572.3300, -72.762
1572.3400, -73.047
1572.3500, -71.275
1572.3600, -70.965
1572.3700, -68.044
1572.3800, -71.227
1572.3900, -68.644
1572.4000, -70.840
1572.4100, -69.979
1572.4200, -69.609
1572.4300, -69.177
1572.4400, -70.803
1572.4500, -71.029
1572.4600, -68.972
1572.4700, -71.785
1572.4800, -70.640
1572.4900, -68.600
1572.5000, -71.228
1572.5100, -70.633
1572.5200, -68.461
1572.5300, -68.784
1572.5400, -68.923
1572.5500, -69.607
1572.5600, -70.746
1572.5700, -68.866
1572.5800, -70.512
1572.5900, -68.739
1572.6000, -69.992
1572.6100, -69.820
1572.6200, -68.957
1572.6300, -72.926
1572.6400, -67.437
1572.6500, -70.234
1572.6600, -71.226
1572.6700, -69.030
1572.6800, -72.372
1572.6900, -70.792
1572.7000, -68.891
1572.7100,-210.000
1572.7200, -68.737
1572.7300, -69.244
1572.7400, -68.216
1572.7500, -68.406
1572.7600, -69.704
1572.7700, -68.402
1572.7800, -72.274
1572.7900, -67.129
1572.8000, -71.921
1572.8100, -71.930
1572.8200, -68.122
1572.8300, -68.267
1572.8400, -69.294
1572.8500, -68.445
1572.8600, -73.498
1572.8700, -70.635
1572.8800, -68.638
1572.8900, -68.256
1572.9000, -69.438
1572.9100, -69.016
1572.9200, -68.742
1572.9300, -75.129
1572.9400, -67.861
1572.9500, -71.521
1572.9600, -74.416
1572.9700,-210.000
1572.9800, -70.283
1572.9900, -67.924
1573.0000, -71.918
1573.0100, -74.120
1573.0200, -70.229
1573.0300, -68.686
1573.0400, -69.540
1573.0500, -71.406
1573.0600, -76.050
1573.0700, -71.467
1573.0800, -70.301
1573.0900, -68.071
1573.1000, -67.623
1573.1100, -68.276
1573.1200, -71.360
1573.1300,-210.000
1573.1400, -75.000
1573.1500, -69.071
1573.1600, -70.830
1573.1700, -69.962
1573.1800, -68.914
1573.1900, -68.094
1573.2000, -72.376
1573.2100, -69.911
1573.2200, -70.548
1573.2300, -73.401
1573.2400, -68.661
1573.2500, -69.117
1573.2600, -73.575
1573.2700, -69.645
1573.2800, -67.939
1573.2900, -70.682
1573.3000, -70.622
1573.3100, -68.294
1573.3200, -69.876
1573.3300, -72.607
1573.3400, -69.607
1573.3500, -70.977
1573.3600, -69.572
1573.3700, -72.504
1573.3800, -71.744
1573.3900, -69.133
1573.4000, -71.125
1573.4100, -82.673
1573.4200, -68.697
1573.4300, -69.679
1573.4400, -70.919
1573.4500, -70.391
1573.4600, -71.334
1573.4700, -70.369
1573.4800, -72.168
1573.4900, -72.775
1573.5000, -71.165
1573.5100, -73.781
1573.5200, -68.775
1573.5300, -68.669
1573.5400, -70.118
1573.5500, -71.230
1573.5600, -71.470
1573.5700, -73.110
1573.5800, -75.160
1573.5900, -71.511
1573.6000, -72.386
1573.6100, -72.075
1573.6200, -69.894
1573.6300, -68.970
1573.6400, -74.148
1573.6500, -70.041
1573.6600, -71.680
1573.6700, -72.078
1573.6800, -69.426
1573.6900, -77.793
1573.7000, -73.376
1573.7100, -69.996
1573.7200, -69.439
1573.7300, -71.707
1573.7400, -70.439
1573.7500, -70.989
1573.7600, -69.847
1573.7700, -72.409
1573.7800, -70.471
1573.7900, -69.318
1573.8000, -70.909
1573.8100, -68.767
1573.8200, -71.588
1573.8300, -70.492
1573.8400, -71.007
1573.8500, -71.794
1573.8600, -72.779
1573.8700, -71.106
1573.8800, -72.738
1573.8900, -73.372
1573.9000, -69.526
1573.9100, -73.225
1573.9200, -68.945
1573.9300, -78.736
1573.9400, -73.992
1573.9500, -71.182
1573.9600, -74.723
1573.9700, -69.489
1573.9800, -70.710
1573.9900, -70.380
1574.0000, -73.663
1574.0100,-210.000
1574.0200, -76.613
1574.0300, -72.976
1574.0400, -70.088
1574.0500, -72.912
1574.0600, -68.838
1574.0700, -72.118
1574.0800,-210.000
1574.0900, -81.238
1574.1000, -70.728
1574.1100, -70.421
1574.1200, -72.244
1574.1300, -69.851
1574.1400, -72.489
1574.1500, -72.604
1574.1600, -78.295
1574.1700, -68.099
1574.1800, -68.927
1574.1900, -70.683
1574.2000, -73.624
1574.2100, -70.337
1574.2200, -71.415
1574.2300, -68.711
1574.2400, -70.117
1574.2500, -76.619
1574.2600, -70.544
1574.2700, -69.945
1574.2800, -77.449
1574.2900, -70.332
1574.3000, -67.953
1574.3100, -68.174
1574.3200, -72.189
1574.3300, -70.302
1574.3400,-210.000
1574.3500, -68.742
1574.3600, -69.596
1574.3700, -69.516
1574.3800, -73.251
1574.3900, -75.103
1574.4000, -71.639
1574.4100, -71.277
1574.4200, -71.381
1574.4300, -69.248
1574.4400, -75.365
1574.4500, -68.988
1574.4600, -68.212
1574.4700, -68.428
1574.4800, -70.457
1574.4900, -76.456
1574.5000, -67.874
1574.5100, -72.817
1574.5200, -71.750
1574.5300, -71.409
1574.5400, -70.739
1574.5500, -68.934
1574.5600, -68.625
1574.5700, -70.110
1574.5800, -70.918
1574.5900, -71.906
1574.6000, -72.349
1574.6100, -71.108
1574.6200, -73.959
1574.6300, -73.336
1574.6400, -72.082
1574.6500,-210.000
1574.6600, -70.549
1574.6700, -68.534
1574.6800, -67.808
1574.6900, -69.286
1574.7000, -68.633
1574.7100, -73.318
1574.7200, -67.902
1574.7300, -68.561
1574.7400, -71.885
1574.7500, -69.491
1574.7600, -69.526
1574.7700, -70.911
1574.7800, -73.305
1574.7900, -70.706
1574.8000, -74.727
1574.8100, -71.653
1574.8200, -70.231
1574.8300, -68.365
1574.8400, -69.780
1574.8500, -71.118
1574.8600, -71.112
1574.8700, -74.642
1574.8800, -78.509
1574.8900, -74.859
1574.9000, -68.496
1574.9100, -70.193
1574.9200, -74.596
1574.9300, -71.892
1574.9400, -69.763
1574.9500, -68.116
1574.9600, -71.346
1574.9700, -73.581
1574.9800, -68.124
1574.9900, -74.336
1575.0000, -75.362
1575.0100, -68.834
1575.0200, -69.399
1575.0300, -72.845
1575.0400, -73.012
1575.0500, -72.006
1575.0600, -75.491
1575.0700, -69.894
1575.0800, -72.806
1575.0900, -69.994
1575.1000, -72.624
1575.1100, -69.466
1575.1200,-210.000
1575.1300, -67.847
1575.1400, -71.001
1575.1500, -71.272
1575.1600,-210.000
1575.1700, -74.129
1575.1800, -69.096
1575.1900, -70.107
1575.2000, -68.856
1575.2100, -73.772
1575.2200, -73.126
1575.2300, -70.442
1575.2400, -70.300
1575.2500, -73.233
1575.2600, -72.041
1575.2700, -68.099
1575.2800, -69.716
1575.2900, -83.382
1575.3000, -71.812
1575.3100, -74.717
1575.3200, -71.576
1575.3300, -69.882
1575.3400, -75.309
1575.3500, -71.362
1575.3600, -76.167
1575.3700, -69.169
1575.3800, -67.952
1575.3900, -69.376
1575.4000, -77.087
1575.4100,-210.000
1575.4200,-210.000
1575.4300, -70.561
1575.4400, -74.833
1575.4500, -71.289
1575.4600, -80.192
1575.4700, -69.512
1575.4800, -67.919
1575.4900, -73.030
1575.5000, -70.345
1575.5100, -71.585
1575.5200, -70.994
1575.5300,-210.000
1575.5400, -75.411
1575.5500, -73.776
1575.5600,-210.000
1575.5700, -80.376
1575.5800, -89.306
1575.5900, -72.434
1575.6000, -74.672
1575.6100, -70.252
1575.6200, -71.360
1575.6300, -72.214
1575.6400, -75.007
1575.6500, -75.622
1575.6600, -71.859
1575.6700,-210.000
1575.6800, -74.494
1575.6900,-210.000
1575.7000, -79.607
1575.7100, -70.655
1575.7200, -72.909
1575.7300, -71.625
1575.7400, -68.774
1575.7500, -69.897
1575.7600, -70.178
1575.7700,-210.000
1575.7800, -72.908
1575.7900, -74.005
1575.8000, -68.563
1575.8100,-210.000
1575.8200, -72.264
1575.8300, -74.113
1575.8400, -73.147
1575.8500, -72.218
1575.8600,-210.000
1575.8700, -69.404
1575.8800, -68.866
1575.8900, -74.067
1575.9000, -69.818
1575.9100, -71.657
1575.9200, -70.068
1575.9300, -69.036
1575.9400, -70.632
1575.9500, -70.519
1575.9600, -75.858
1575.9700, -69.035
1575.9800, -72.642
1575.9900, -73.417
1576.0000, -73.978
1576.0100, -71.356
1576.0200, -81.438
1576.0300, -71.234
1576.0400, -71.753
1576.0500, -71.434
1576.0600, -70.120
1576.0700, -73.023
1576.0800,-210.000
1576.0900, -72.462
1576.1000, -79.725
1576.1100, -75.653
1576.1200, -70.965
1576.1300, -71.886
1576.1400, -70.083
1576.1500, -75.474
1576.1600, -71.398
1576.1700, -72.072
1576.1800, -70.630
1576.1900, -70.868
1576.2000, -74.682
1576.2100, -69.814
1576.2200, -94.268
1576.2300, -74.994
1576.2400, -67.686
1576.2500,-210.000
1576.2600,-210.000
1576.2700, -69.713
1576.2800, -73.182
1576.2900, -73.266
1576.3000, -73.974
1576.3100, -69.439
1576.3200,-210.000
1576.3300, -75.456
1576.3400, -82.230
1576.3500, -72.748
1576.3600, -70.609
1576.3700, -74.289
1576.3800, -76.291
1576.3900,-210.000
1576.4000,-210.000
1576.4100, -72.498
1576.4200, -81.947
1576.4300, -72.253
1576.4400, -70.853
1576.4500, -70.687
1576.4600, -68.037
1576.4700, -70.591
1576.4800, -70.133
1576.4900, -72.636
1576.5000, -70.772
1576.5100, -71.004
1576.5200, -70.910
1576.5300, -84.973
1576.5400,-210.000
1576.5500, -76.561
1576.5600, -73.364
1576.5700, -70.445
1576.5800,-210.000
1576.5900, -75.777
1576.6000,-210.000
1576.6100, -70.536
1576.6200,-210.000
1576.6300, -75.468
1576.6400, -69.566
1576.6500, -70.059
1576.6600, -74.096
1576.6700,-210.000
1576.6800, -71.368
1576.6900, -68.885
1576.7000, -74.891
1576.7100, -73.883
1576.7200,-210.000
1576.7300,-210.000
1576.7400, -72.988
1576.7500,-210.000
1576.7600, -74.659
1576.7700, -72.819
1576.7800, -77.671
1576.7900,-210.000
1576.8000, -73.657
1576.8100,-210.000
1576.8200,-210.000
1576.8300, -70.786
1576.8400, -72.411
1576.8500, -69.556
1576.8600, -73.797
1576.8700, -69.883
1576.8800, -76.188
1576.8900, -71.713
1576.9000, -71.980
1576.9100, -73.398
1576.9200, -70.691
1576.9300, -70.804
1576.9400, -74.724
1576.9500, -79.592
1576.9600, -72.662
1576.9700, -69.524
1576.9800, -71.832
1576.9900, -70.840
1577.0000,-210.000
1577.0100, -73.609
1577.0200, -72.171
1577.0300, -71.398
1577.0400, -72.442
1577.0500, -78.530
1577.0600, -73.892
1577.0700, -71.487
1577.0800, -68.305
1577.0900, -75.463
1577.1000, -70.931
1577.1100, -70.801
1577.1200, -70.512
1577.1300, -78.800
1577.1400, -71.583
1577.1500,-210.000
1577.1600, -70.565
1577.1700, -71.410
1577.1800, -75.983
1577.1900, -74.186
1577.2000, -71.197
1577.2100, -70.853
1577.2200, -84.965
1577.2300, -72.144
1577.2400, -73.515
1577.2500, -70.425
1577.2600, -76.331
1577.2700, -83.405
1577.2800, -77.531
1577.2900, -71.649
1577.3000, -74.221
1577.3100, -73.876
1577.3200, -69.878
1577.3300, -73.063
1577.3400, -71.839
1577.3500, -72.736
1577.3600,-210.000
1577.3700,-210.000
1577.3800, -70.755
1577.3900, -69.131
1577.4000, -73.027
1577.4100, -72.109
1577.4200, -71.265
1577.4300, -69.321
1577.4400, -71.420
1577.4500, -70.321
1577.4600, -79.654
1577.4700, -78.615
1577.4800,-210.000
1577.4900, -73.827
1577.5000, -72.754
1577.5100,-210.000
1577.5200, -81.420
1577.5300, -74.349
1577.5400, -74.559
1577.5500, -67.875
1577.5600, -74.565
1577.5700, -71.405
1577.5800, -70.303
1577.5900, -71.797
1577.6000, -69.288
1577.6100, -76.107
1577.6200, -75.386
1577.6300, -72.509
1577.6400, -69.302
1577.6500, -78.612
1577.6600, -71.781
1577.6700, -72.225
1577.6800, -73.834
1577.6900, -74.691
1577.7000, -76.970
1577.7100,-210.000
1577.7200, -72.749
1577.7300, -77.395
1577.7400, -71.599
1577.7500, -74.214
1577.7600, -71.330
1577.7700, -82.251
1577.7800, -77.226
1577.7900, -72.461
1577.8000, -77.357
1577.8100,-210.000
1577.8200,-210.000
1577.8300, -72.545
1577.8400,-210.000
1577.8500, -72.430
1577.8600, -74.235
1577.8700, -74.050
1577.8800, -70.448
1577.8900,-210.000
1577.9000, -75.379
1577.9100, -71.520
1577.9200, -83.854
1577.9300, -72.056
1577.9400, -82.508
1577.9500, -93.625
1577.9600, -76.471
1577.9700,-210.000
1577.9800, -73.780
1577.9900,-210.000
1578.0000, -71.468
1578.0100, -68.343
1578.0200, -71.406
1578.0300, -69.865
1578.0400, -77.139
1578.0500, -70.387
1578.0600,-210.000
1578.0700,-210.000
1578.0800, -76.046
1578.0900, -70.064
1578.1000, -69.966
1578.1100, -69.421
1578.1200, -70.176
1578.1300,-210.000
1578.1400, -73.776
1578.1500, -69.879
1578.1600, -69.202
1578.1700, -68.579
1578.1800, -76.134
1578.1900,-210.000
1578.2000, -73.727
1578.2100, -77.614
1578.2200,-210.000
1578.2300, -75.976
1578.2400, -69.269
1578.2500, -73.375
1578.2600, -72.950
1578.2700, -73.151
1578.2800, -73.151
1578.2900, -73.586
1578.3000, -69.612
1578.3100, -67.781
1578.3200, -71.031
1578.3300, -80.662
1578.3400,-210.000
1578.3500, -90.476
1578.3600, -82.165
1578.3700, -69.960
1578.3800, -71.837
1578.3900, -71.610
1578.4000, -72.971
1578.4100, -71.264
1578.4200, -71.663
1578.4300, -94.233
1578.4400, -71.264
1578.4500, -73.605
1578.4600, -71.065
1578.4700, -68.959
1578.4800, -76.128
1578.4900, -75.615
1578.5000,-210.000
1578.5100, -78.222
1578.5200,-210.000
1578.5300, -74.594
1578.5400, -69.464
1578.5500, -70.591
1578.5600, -71.814
1578.5700, -78.592
1578.5800, -70.022
1578.5900, -70.079
1578.6000, -72.352
1578.6100, -71.614
1578.6200, -71.894
1578.6300, -70.612
1578.6400, -68.619
1578.6500, -73.601
1578.6600, -71.179
1578.6700, -69.407
1578.6800, -75.302
1578.6900,-210.000
1578.7000,-210.000
1578.7100, -70.067
1578.7200, -70.509
1578.7300, -68.166
1578.7400, -72.534
1578.7500, -73.441
1578.7600, -71.449
1578.7700, -75.525
1578.7800, -71.601
1578.7900, -73.018
1578.8000, -73.401
1578.8100,-210.000
1578.8200, -78.373
1578.8300,-210.000
1578.8400, -71.450
1578.8500, -79.467
1578.8600,-210.000
1578.8700, -70.531
1578.8800, -71.888
1578.8900, -87.390
1578.9000, -73.516
1578.9100,-210.000
1578.9200,-210.000
1578.9300,-210.000
1578.9400, -71.911
1578.9500, -78.750
1578.9600, -72.896
1578.9700,-210.000
1578.9800, -70.347
1578.9900, -71.980
1579.0000,-210.000
1579.0100, -76.295
1579.0200,-210.000
1579.0300, -72.370
1579.0400, -67.621
1579.0500, -70.252
1579.0600, -77.117
1579.0700, -74.226
1579.0800, -76.605
1579.0900, -75.022
1579.1000, -75.732
1579.1100, -74.735
1579.1200,-210.000
1579.1300, -74.660
1579.1400, -73.591
1579.1500, -71.117
1579.1600, -69.423
1579.1700, -72.340
1579.1800,-210.000
1579.1900, -72.138
1579.2000, -71.518
1579.2100, -71.369
1579.2200, -69.012
1579.2300,-210.000
1579.2400, -71.936
1579.2500, -68.540
1579.2600, -77.591
1579.2700, -76.240
1579.2800, -74.750
1579.2900, -73.162
1579.3000, -70.417
1579.3100, -71.798
1579.3200, -71.381
1579.3300, -76.801
1579.3400, -75.861
1579.3500, -72.966
1579.3600, -70.099
1579.3700, -73.586
1579.3800, -70.959
1579.3900, -72.101
1579.4000, -71.639
1579.4100, -70.593
1579.4200, -73.427
1579.4300, -73.192
1579.4400, -75.858
1579.4500, -73.796
1579.4600, -86.182
1579.4700, -91.051
1579.4800, -73.561
1579.4900, -71.396
1579.5000, -81.142
1579.5100, -80.124
1579.5200,-210.000
1579.5300, -83.147
1579.5400, -73.424
1579.5500, -70.980
1579.5600,-210.000
1579.5700, -69.291
1579.5800, -73.082
1579.5900, -85.434
1579.6000,-210.000
1579.6100, -74.048
1579.6200, -75.854
1579.6300,-210.000
1579.6400, -78.735
1579.6500, -70.731
1579.6600, -73.913
1579.6700, -70.409
1579.6800,-210.000
1579.6900,-210.000
1579.7000, -78.196
1579.7100, -71.431
1579.7200, -75.280
1579.7300, -70.005
1579.7400, -74.170
1579.7500, -76.925
1579.7600,-210.000
1579.7700,-210.000
1579.7800, -74.990
1579.7900, -91.043
1579.8000, -71.775
1579.8100,-210.000
1579.8200, -68.284
1579.8300, -73.836
1579.8400, -74.783
1579.8500, -67.875
1579.8600, -71.577
1579.8700, -78.282
1579.8800,-210.000
1579.8900, -72.175
1579.9000, -74.614
1579.9100, -69.486
1579.9200, -78.861
1579.9300,-210.000
1579.9400, -71.230
1579.9500,-210.000
1579.9600, -70.829
1579.9700, -76.504
1579.9800, -81.578
1579.9900, -68.652
1580.0000, -74.929
1580.0100, -70.343
1580.0200, -72.019
1580.0300, -72.511
1580.0400, -73.609
1580.0500, -78.705
1580.0600, -75.723
1580.0700, -84.389
1580.0800, -73.816
1580.0900, -70.696
1580.1000, -74.124
1580.1100,-210.000
1580.1200, -74.630
1580.1300, -71.107
1580.1400, -94.193
1580.1500, -71.672
1580.1600,-210.000
1580.1700, -72.342
1580.1800, -68.779
1580.1900, -73.987
1580.2000,-210.000
1580.2100, -70.394
1580.2200, -70.453
1580.2300, -69.551
1580.2400, -72.677
1580.2500, -71.882
1580.2600, -72.343
1580.2700, -85.575
1580.2800,-210.000
1580.2900, -70.906
1580.3000, -72.193
1580.3100, -75.659
1580.3200, -78.716
1580.3300, -68.775
1580.3400, -75.121
1580.3500, -72.365
1580.3600, -78.987
1580.3700, -74.704
1580.3800,-210.000
1580.3900, -69.547
1580.4000, -69.048
1580.4100, -73.299
1580.4200,-210.000
1580.4300,-210.000
1580.4400, -72.160
1580.4500, -88.623
1580.4600,-210.000
1580.4700, -70.945
1580.4800, -74.971
1580.4900, -70.006
1580.5000, -72.334
1580.5100, -72.818
1580.5200, -77.204
1580.5300, -76.015
1580.5400, -71.661
1580.5500, -75.198
1580.5600, -90.423
1580.5700,-210.000
1580.5800, -74.157
1580.5900,-210.000
1580.6000, -72.444
1580.6100, -80.794
1580.6200, -75.138
1580.6300, -72.155
1580.6400, -70.496
1580.6500, -73.242
1580.6600, -71.190
1580.6700, -78.260
1580.6800, -69.056
1580.6900, -70.985
1580.7000, -70.766
1580.7100, -69.612
1580.7200, -73.569
1580.7300, -78.091
1580.7400, -72.094
1580.7500,-210.000
1580.7600, -79.743
1580.7700,-210.000
1580.7800,-210.000
1580.7900, -69.897
1580.8000, -85.987
1580.8100, -77.165
1580.8200,-210.000
1580.8300, -77.395
1580.8400, -73.425
1580.8500, -70.576
1580.8600,-210.000
1580.8700, -75.379
1580.8800, -79.911
1580.8900, -72.641
1580.9000, -71.399
1580.9100, -71.869
1580.9200, -75.472
1580.9300, -75.957
1580.9400, -71.183
1580.9500,-210.000
1580.9600, -72.009
1580.9700, -72.639
1580.9800, -75.129
1580.9900, -69.679
1581.0000, -72.638
1581.0100,-210.000
1581.0200, -72.771
1581.0300, -73.566
1581.0400, -69.838
1581.0500, -76.555
1581.0600,-210.000
1581.0700,-210.000
1581.0800, -81.390
1581.0900, -70.294
1581.1000, -71.015
1581.1100, -77.752
1581.1200, -71.040
1581.1300, -73.382
1581.1400, -71.770
1581.1500, -69.252
1581.1600, -80.266
1581.1700, -71.368
1581.1800, -70.070
1581.1900, -72.079
1581.2000, -70.349
1581.2100, -72.633
1581.2200, -71.196
1581.2300, -74.049
1581.2400, -70.586
1581.2500, -78.260
1581.2600, -70.860
1581.2700, -74.339
1581.2800, -72.022
1581.2900, -70.328
1581.3000, -70.859
1581.3100, -79.765
1581.3200,-210.000
1581.3300, -71.196
1581.3400, -73.333
1581.3500, -71.034
1581.3600, -74.790
1581.3700, -76.795
1581.3800, -75.160
1581.3900,-210.000
1581.4000, -73.573
1581.4100, -69.080
1581.4200, -68.386
1581.4300,-210.000
1581.4400,-210.000
1581.4500, -70.500
1581.4600, -82.513
1581.4700, -85.969
1581.4800, -73.073
1581.4900, -70.406
1581.5000, -72.465
1581.5100, -70.208
1581.5200, -72.792
1581.5300, -71.269
1581.5400, -72.527
1581.5500, -81.324
1581.5600,-210.000
1581.5700, -69.480
1581.5800, -72.252
1581.5900,-210.000
1581.6000, -72.998
1581.6100,-210.000
1581.6200, -77.724
1581.6300, -94.155
1581.6400, -71.050
1581.6500, -71.236
1581.6600, -71.294
1581.6700, -76.246
1581.6800, -73.216
1581.6900, -72.307
1581.7000, -70.474
1581.7100, -71.666
1581.7200, -68.493
1581.7300,-210.000
1581.7400, -76.620
1581.7500, -78.372
1581.7600, -71.790
1581.7700,-210.000
1581.7800, -73.140
1581.7900, -70.259
1581.8000,-210.000
1581.8100, -76.618
1581.8200,-210.000
1581.8300, -78.679
1581.8400, -69.297
1581.8500,-210.000
1581.8600,-210.000
1581.8700, -72.521
1581.8800,-210.000
1581.8900,-210.000
1581.9000, -87.906
1581.9100,-210.000
1581.9200, -79.550
1581.9300,-210.000
1581.9400, -73.028
1581.9500, -71.375
1581.9600, -70.801
1581.9700, -72.307
1581.9800, -76.044
1581.9900, -76.615
1582.0000, -69.605
1582.0100, -81.829
1582.0200,-210.000
1582.0300, -87.438
1582.0400,-210.000
1582.0500, -73.684
1582.0600, -71.938
1582.0700, -70.843
1582.0800, -69.862
1582.0900, -72.391
1582.1000,-210.000
1582.1100, -72.747
1582.1200, -73.208
1582.1300, -71.299
1582.1400,-210.000
1582.1500, -71.044
1582.1600, -72.488
1582.1700, -69.272
1582.1800, -70.691
1582.1900, -71.841
1582.2000, -77.042
1582.2100, -74.261
1582.2200,-210.000
1582.2300, -74.074
1582.2400, -73.586
1582.2500,-210.000
1582.2600, -76.449
1582.2700, -74.713
1582.2800, -72.478
1582.2900, -74.068
1582.3000, -79.544
1582.3100,-210.000
1582.3200, -73.093
1582.3300, -68.986
1582.3400, -72.658
1582.3500, -71.468
1582.3600, -75.789
1582.3700,-210.000
1582.3800, -71.129
1582.3900, -74.190
1582.4000, -74.504
1582.4100, -84.850
1582.4200,-210.000
1582.4300, -75.996
1582.4400, -72.385
1582.4500, -69.500
1582.4600, -78.502
1582.4700, -77.038
1582.4800, -70.171
1582.4900, -73.018
1582.5000,-210.000
1582.5100, -84.848
1582.5200,-210.000
1582.5300,-210.000
1582.5400, -89.168
1582.5500,-210.000
1582.5600, -77.514
1582.5700, -81.070
1582.5800, -75.013
1582.5900,-210.000
1582.6000, -69.914
1582.6100, -70.600
1582.6200,-210.000
1582.6300, -75.784
1582.6400, -73.395
1582.6500,-210.000
1582.6600, -71.338
1582.6700, -71.462
1582.6800, -73.236
1582.6900, -72.928
1582.7000, -75.112
1582.7100, -72.506
1582.7200,-210.000
1582.7300, -71.966
1582.7400,-210.000
1582.7500,-210.000
1582.7600, -73.196
1582.7700, -69.526
1582.7800, -74.576
1582.7900,-210.000
1582.8000,-210.000
1582.8100, -70.721
1582.8200, -74.347
1582.8300, -72.536
1582.8400, -69.297
1582.8500, -70.440
1582.8600, -72.078
1582.8700, -78.046
1582.8800, -71.663
1582.8900,-210.000
1582.9000, -79.306
1582.9100, -72.939
1582.9200, -80.627
1582.9300, -72.394
1582.9400, -80.424
1582.9500, -69.273
1582.9600, -75.388
1582.9700, -71.431
1582.9800,-210.000
1582.9900, -70.316
1583.0000,-210.000
1583.0100, -75.145
1583.0200,-210.000
1583.0300,-210.000
1583.0400,-210.000
1583.0500, -75.845
1583.0600, -74.698
1583.0700,-210.000
1583.0800, -71.793
1583.0900, -77.361
1583.1000, -76.129
1583.1100,-210.000
1583.1200,-210.000
1583.1300, -77.347
1583.1400, -79.693
1583.1500, -78.399
1583.1600,-210.000
1583.1700,-210.000
1583.1800, -79.369
1583.1900, -80.553
1583.2000, -72.310
1583.2100,-210.000
1583.2200,-210.000
1583.2300, -73.171
1583.2400, -73.113
1583.2500, -72.042
1583.2600,-210.000
1583.2700,-210.000
1583.2800, -77.271
1583.2900, -75.704
1583.3000, -85.419
1583.3100,-210.000
1583.3200, -70.794
1583.3300, -72.591
1583.3400, -79.524
1583.3500, -72.724
1583.3600,-210.000
1583.3700, -70.068
1583.3800, -69.776
1583.3900, -73.701
1583.4000, -74.145
1583.4100,-210.000
1583.4200, -71.695
1583.4300, -73.036
1583.4400, -70.927
1583.4500, -71.813
1583.4600, -75.701
1583.4700,-210.000
1583.4800, -69.466
1583.4900, -69.172
1583.5000, -69.643
1583.5100, -67.826
1583.5200, -74.860
1583.5300, -70.836
1583.5400, -73.698
1583.5500, -75.835
1583.5600,-210.000
1583.5700, -73.378
1583.5800,-210.000
1583.5900, -71.810
1583.6000,-210.000
1583.6100,-210.000
1583.6200,-210.000
1583.6300, -75.888
1583.6400, -73.738
1583.6500, -72.393
1583.6600, -72.034
1583.6700,-210.000
1583.6800, -68.177
1583.6900, -76.413
1583.7000, -74.686
1583.7100, -84.310
1583.7200, -74.633
1583.7300, -73.420
1583.7400, -69.303
1583.7500, -73.569
1583.7600, -71.194
1583.7700, -70.377
1583.7800, -75.831
1583.7900, -69.997
1583.8000, -69.823
1583.8100, -69.256
1583.8200, -71.292
1583.8300, -74.631
1583.8400, -70.336
1583.8500,-210.000
1583.8600,-210.000
1583.8700, -74.426
1583.8800, -75.309
1583.8900, -79.055
1583.9000, -78.510
1583.9100, -73.283
1583.9200, -83.563
1583.9300, -72.205
1583.9400,-210.000
1583.9500, -71.052
1583.9600, -70.404
1583.9700, -69.130
1583.9800, -73.996
1583.9900, -72.779
1584.0000,-210.000
1584.0100, -71.411
1584.0200, -72.409
1584.0300, -84.819
1584.0400,-210.000
1584.0500, -71.167
1584.0600, -70.982
1584.0700, -77.099
1584.0800,-210.000
1584.0900, -70.048
1584.1000, -73.903
1584.1100, -73.687
1584.1200, -76.414
1584.1300, -76.425
1584.1400, -71.102
1584.1500, -77.286
1584.1600, -77.586
1584.1700,-210.000
1584.1800, -75.892
1584.1900, -74.149
1584.2000, -74.931
1584.2100, -80.602
1584.2200, -71.853
1584.2300, -70.467
1584.2400, -69.797
1584.2500, -73.501
1584.2600, -70.879
1584.2700, -69.562
1584.2800, -73.642
1584.2900, -73.558
1584.3000,-210.000
1584.3100,-210.000
1584.3200, -73.204
1584.3300, -71.079
1584.3400,-210.000
1584.3500, -74.317
1584.3600, -72.261
1584.3700, -70.135
1584.3800, -72.637
1584.3900, -80.202
1584.4000, -69.575
1584.4100, -81.034
1584.4200, -71.133
1584.4300, -72.828
1584.4400, -72.315
1584.4500,-210.000
1584.4600, -72.944
1584.4700,-210.000
1584.4800,-210.000
1584.4900, -73.595
1584.5000, -84.809
1584.5100, -86.872
1584.5200, -77.579
1584.5300,-210.000
1584.5400, -79.140
1584.5500, -74.313
1584.5600, -83.036
1584.5700, -72.907
1584.5800, -89.129
1584.5900, -69.960
1584.6000, -76.173
1584.6100, -71.371
1584.6200, -72.534
1584.6300, -73.352
1584.6400, -79.340
1584.6500, -76.325
1584.6600, -76.098
1584.6700,-210.000
1584.6800, -82.060
1584.6900, -69.059
1584.7000, -72.582
1584.7100, -72.869
1584.7200, -74.303
1584.7300,-210.000
1584.7400, -72.466
1584.7500, -73.935
1584.7600, -75.951
1584.7700, -74.458
1584.7800, -70.620
1584.7900, -73.979
1584.8000, -72.902
1584.8100,-210.000
1584.8200,-210.000
1584.8300, -87.850
1584.8400, -71.572
1584.8500, -76.502
1584.8600, -75.228
1584.8700, -80.193
1584.8800, -70.681
1584.8900, -80.801
1584.9000, -74.879
1584.9100, -70.362
1584.9200, -69.807
1584.9300, -71.545
1584.9400,-210.000
1584.9500,-210.000
1584.9600, -73.628
1584.9700, -82.824
1584.9800, -71.614
1584.9900, -72.863
1585.0000, -69.629
1585.0100, -75.106
1585.0200, -70.700
1585.0300,-210.000
1585.0400,-210.000
1585.0500, -71.218
1585.0600, -79.179
1585.0700, -69.945
1585.0800, -75.347
1585.0900, -79.331
1585.1000, -74.295
1585.1100, -70.961
1585.1200, -71.217
1585.1300, -72.459
1585.1400,-210.000
1585.1500,-210.000
1585.1600, -87.378
1585.1700,-210.000
1585.1800, -76.112
1585.1900, -79.029
1585.2000, -71.778
1585.2100, -72.239
1585.2200, -83.023
1585.2300,-210.000
1585.2400,-210.000
1585.2500, -73.261
1585.2600, -73.339
1585.2700, -68.766
1585.2800,-210.000
1585.2900, -75.151
1585.3000, -72.371
1585.3100,-210.000
1585.3200, -74.298
1585.3300,-210.000
1585.3400, -74.760
1585.3500, -71.001
1585.3600, -75.150
1585.3700, -72.628
1585.3800, -71.775
1585.3900, -80.578
1585.4000, -72.855
1585.4100,-210.000
1585.4200, -76.051
1585.4300, -85.377
1585.4400,-210.000
1585.4500,-210.000
1585.4600, -74.104
1585.4700, -71.283
1585.4800, -75.465
1585.4900,-210.000
1585.5000, -70.754
1585.5100,-210.000
1585.5200, -72.264
1585.5300, -71.892
1585.5400, -72.515
1585.5500,-210.000
1585.5600, -76.887
1585.5700, -72.418
1585.5800,-210.000
1585.5900, -72.645
1585.6000, -74.441
1585.6100,-210.000
1585.6200,-210.000
1585.6300,-210.000
1585.6400, -74.977
1585.6500, -81.494
1585.6600,-210.000
1585.6700, -75.792
1585.6800, -71.327
1585.6900, -78.348
1585.7000,-210.000
1585.7100, -80.882
1585.7200, -86.046
1585.7300, -82.662
1585.7400,-210.000
1585.7500,-210.000
1585.7600, -71.156
1585.7700, -76.302
1585.7800, -72.894
1585.7900,-210.000
1585.8000, -70.924
1585.8100, -75.653
1585.8200, -79.987
1585.8300,-210.000
1585.8400, -86.258
1585.8500, -73.186
1585.8600, -74.642
1585.8700, -72.606
1585.8800, -73.097
1585.8900, -68.049
1585.9000, -72.347
1585.9100, -75.029
1585.9200, -81.170
1585.9300, -75.100
1585.9400, -71.846
1585.9500, -72.378
1585.9600, -70.196
1585.9700, -80.779
1585.9800, -75.855
1585.9900, -74.276
1586.0000,-210.000
1586.0100,-210.000
1586.0200, -70.027
1586.0300, -72.472
1586.0400, -86.840
1586.0500, -76.789
1586.0600,-210.000
1586.0700, -74.943
1586.0800, -71.469
1586.0900, -76.701
1586.1000, -71.368
1586.1100,-210.000
1586.1200, -89.097
1586.1300, -80.359
1586.1400, -71.519
1586.1500, -72.633
1586.1600, -75.653
1586.1700, -73.241
1586.1800, -73.816
1586.1900, -70.172
1586.2000, -70.961
1586.2100,-210.000
1586.2200, -75.849
1586.2300, -71.005
1586.2400, -74.552
1586.2500, -74.741
1586.2600, -69.895
1586.2700,-210.000
1586.2800,-210.000
1586.2900, -77.242
1586.3000, -74.133
1586.3100,-210.000
1586.3200,-210.000
1586.3300, -72.667
1586.3400, -70.845
1586.3500, -72.731
1586.3600, -70.242
1586.3700, -72.799
1586.3800, -76.611
1586.3900, -82.325
1586.4000, -72.975
1586.4100, -74.225
1586.4200, -69.744
1586.4300,-210.000
1586.4400, -71.536
1586.4500, -69.648
1586.4600, -69.532
1586.4700, -73.084
1586.4800, -77.238
1586.4900, -71.460
1586.5000, -75.863
1586.5100, -84.767
1586.5200, -72.901
1586.5300, -70.521
1586.5400, -74.957
1586.5500, -78.087
1586.5600, -73.390
1586.5700,-210.000
1586.5800, -72.427
1586.5900, -89.609
1586.6000, -74.521
1586.6100, -72.829
1586.6200, -74.956
1586.6300, -73.634
1586.6400, -72.724
1586.6500,-210.000
1586.6600, -83.788
1586.6700, -73.467
1586.6800, -73.269
1586.6900, -73.167
1586.7000,-210.000
1586.7100,-210.000
1586.7200,-210.000
1586.7300,-210.000
1586.7400, -76.861
1586.7500,-210.000
1586.7600,-210.000
1586.7700, -72.039
1586.7800, -78.837
1586.7900,-210.000
1586.8000,-210.000
1586.8100,-210.000
1586.8200, -73.076
1586.8300,-210.000
1586.8400,-210.000
1586.8500,-210.000
1586.8600, -72.788
1586.8700, -71.862
1586.8800, -71.549
1586.8900, -80.759
1586.9000, -73.979
1586.9100,-210.000
1586.9200, -76.355
1586.9300, -71.769
1586.9400,-210.000
1586.9500,-210.000
1586.9600, -77.158
1586.9700, -71.130
1586.9800, -71.374
1586.9900, -70.699
1587.0000,-210.000
1587.0100, -83.364
1587.0200, -87.803
1587.0300, -83.148
1587.0400, -79.612
1587.0500, -77.266
1587.0600, -70.829
1587.0700, -72.925
1587.0800, -74.832
1587.0900, -76.273
1587.1000, -70.366
1587.1100, -75.753
1587.1200, -71.247
1587.1300, -71.270
1587.1400, -75.760
1587.1500,-210.000
1587.1600,-210.000
1587.1700, -70.384
1587.1800, -76.510
1587.1900, -77.419
1587.2000, -83.874
1587.2100, -73.143
1587.2200, -84.236
1587.2300, -78.440
1587.2400, -70.941
1587.2500, -72.921
1587.2600, -69.433
1587.2700, -69.353
1587.2800, -71.075
1587.2900, -69.247
1587.3000, -80.973
1587.3100,-210.000
1587.3200, -81.208
1587.3300, -84.749
1587.3400, -75.175
1587.3500, -80.333
1587.3600, -72.847
1587.3700, -71.334
1587.3800, -74.609
1587.3900, -71.217
1587.4000, -75.486
1587.4100,-210.000
1587.4200,-210.000
1587.4300, -74.415
1587.4400, -77.414
1587.4500, -69.510
1587.4600, -71.925
1587.4700, -74.060
1587.4800, -75.295
1587.4900, -71.674
1587.5000,-210.000
1587.5100, -77.515
1587.5200,-210.000
1587.5300, -75.964
1587.5400, -77.214
1587.5500, -73.723
1587.5600, -72.471
1587.5700, -73.448
1587.5800, -74.657
1587.5900,-210.000
1587.6000,-210.000
1587.6100,-210.000
1587.6200, -70.930
1587.6300,-210.000
1587.6400, -73.816
1587.6500,-210.000
1587.6600, -94.033
1587.6700, -77.724
1587.6800, -69.724
1587.6900, -72.840
1587.7000,-210.000
1587.7100, -80.741
1587.7200, -77.308
1587.7300,-210.000
1587.7400, -73.131
1587.7500,-210.000
1587.7600,-210.000
1587.7700,-210.000
1587.7800, -73.211
1587.7900, -75.746
1587.8000, -77.614
1587.8100, -75.226
1587.8200, -74.146
1587.8300,-210.000
1587.8400, -73.959
1587.8500,-210.000
1587.8600, -75.676
1587.8700,-210.000
1587.8800,-210.000
1587.8900,-210.000
1587.9000,-210.000
1587.9100, -84.153
1587.9200, -74.927
1587.9300, -71.353
1587.9400, -70.388
1587.9500,-210.000
1587.9600, -72.426
1587.9700, -76.924
1587.9800, -76.412
1587.9900, -74.339
1588.0000, -70.114
1588.0100, -71.828
1588.0200,-210.000
1588.0300,-210.000
1588.0400, -76.165
1588.0500,-210.000
1588.0600,-210.000
1588.0700,-210.000
1588.0800, -69.336
1588.0900, -70.965
1588.1000, -74.094
1588.1100, -72.902
1588.1200, -81.986
1588.1300,-210.000
1588.1400,-210.000
1588.1500, -75.342
1588.1600, -74.754
1588.1700, -71.301
1588.1800, -74.604
1588.1900, -71.010
1588.2000, -69.747
1588.2100, -70.695
1588.2200, -69.800
1588.2300, -77.011
1588.2400, -77.712
1588.2500,-210.000
1588.2600, -73.557
1588.2700, -74.752
1588.2800, -81.242
1588.2900, -70.694
1588.3000,-210.000
1588.3100, -72.455
1588.3200,-210.000
1588.3300, -76.405
1588.3400, -68.953
1588.3500,-210.000
1588.3600, -75.338
1588.3700, -73.555
1588.3800, -87.774
1588.3900,-210.000
1588.4000, -72.584
1588.4100, -71.268
1588.4200, -75.152
1588.4300,-210.000
1588.4400, -79.582
1588.4500, -77.817
1588.4600, -69.824
1588.4700, -79.106
1588.4800,-210.000
1588.4900,-210.000
1588.5000, -72.229
1588.5100, -71.341
1588.5200, -71.846
1588.5300, -75.211
1588.5400, -86.786
1588.5500, -78.542
1588.5600, -73.797
1588.5700,-210.000
1588.5800,-210.000
1588.5900, -73.592
1588.6000, -74.083
1588.6100,-210.000
1588.6200, -76.241
1588.6300, -71.414
1588.6400, -73.385
1588.6500, -73.988
1588.6600, -75.525
1588.6700,-210.000
1588.6800,-210.000
1588.6900,-210.000
1588.7000, -78.539
1588.7100, -77.490
1588.7200, -71.413
1588.7300, -74.127
1588.7400,-210.000
1588.7500, -81.973
1588.7600, -74.527
1588.7700,-210.000
1588.7800,-210.000
1588.7900, -72.348
1588.8000, -73.588
1588.8100, -79.923
1588.8200, -71.436
1588.8300, -71.461
1588.8400, -78.157
1588.8500, -77.187
1588.8600, -71.673
1588.8700, -76.816
1588.8800, -75.391
1588.8900, -69.000
1588.9000,-210.000
1588.9100,-210.000
1588.9200,-210.000
1588.9300,-210.000
1588.9400,-210.000
1588.9500,-210.000
1588.9600,-210.000
1588.9700, -76.996
1588.9800,-210.000
1588.9900, -72.158
1589.0000, -77.919
1589.0100, -71.158
1589.0200, -72.376
1589.0300, -71.280
1589.0400, -70.365
1589.0500, -70.130
1589.0600,-210.000
1589.0700,-210.000
1589.0800, -75.261
1589.0900, -76.811
1589.1000, -78.084
1589.1100, -75.415
1589.1200, -74.366
1589.1300, -81.683
1589.1400, -74.216
1589.1500,-210.000
1589.1600, -73.335
1589.1700, -80.711
1589.1800,-210.000
1589.1900,-210.000
1589.2000, -77.180
1589.2100, -72.880
1589.2200, -75.581
1589.2300,-210.000
1589.2400, -74.214
1589.2500, -71.340
1589.2600, -76.721
1589.2700, -71.402
1589.2800, -69.451
1589.2900, -80.708
1589.3000, -72.003
1589.3100, -75.855
1589.3200, -70.609
1589.3300, -68.325
1589.3400, -71.568
1589.3500, -84.707
1589.3600,-210.000
1589.3700, -81.415
1589.3800, -76.547
1589.3900, -70.501
1589.4000,-210.000
1589.4100, -85.292
1589.4200, -79.563
1589.4300, -76.894
1589.4400,-210.000
1589.4500,-210.000
1589.4600, -70.653
1589.4700,-210.000
1589.4800, -71.687
1589.4900, -71.029
1589.5000, -74.460
