70BCSV 	
// AQ6370D OPTICAL SPECTRUM ANALYZER //                 
30
"CTRWL",1569.500000
"SPAN",  49.000000
"START WL",1545.000000
"STOP WL",1594.000000
"WLFREQ", 0
"REFL",-26.2
"LSCL",10.0
"RESLN",0.050
"AVG",   1
"SMPLAUTO",      1
"SMPL",       4901
"SMPLINTVL",0.0100
"NORMAL"
"MEAS"
"LSUNT",0
"NMSKH","OFF"
"RESCOR",0
"SMOOTH",0
"FIBERTYPE",0
"MEASWL",0
"SWPSPD",1
"NEBWCAL0",    0
"NEBWCAL1",    0
"NEBWCALWL",   0
"RESPARM", 9230
"FREQPARM", 9230




"[TRACE DATA]"
1545.0000,-210.000
1545.0100,-210.000
1545.0200,-210.000
1545.0300,-210.000
1545.0400,-210.000
1545.0500,-210.000
1545.0600,-210.000
1545.0700, -75.275
1545.0800,-210.000
1545.0900, -74.613
1545.1000, -70.876
1545.1100,-210.000
1545.1200, -78.728
1545.1300, -72.555
1545.1400,-210.000
1545.1500,-210.000
1545.1600, -75.060
1545.1700,-210.000
1545.1800, -75.926
1545.1900, -71.304
1545.2000, -73.836
1545.2100, -73.350
1545.2200, -77.519
1545.2300,-210.000
1545.2400, -72.726
1545.2500, -71.918
1545.2600,-210.000
1545.2700, -76.122
1545.2800, -76.661
1545.2900, -76.929
1545.3000, -70.588
1545.3100,-210.000
1545.3200, -75.081
1545.3300,-210.000
1545.3400, -75.142
1545.3500, -79.342
1545.3600, -81.314
1545.3700,-210.000
1545.3800,-210.000
1545.3900, -79.785
1545.4000,-210.000
1545.4100, -77.734
1545.4200, -74.472
1545.4300, -86.518
1545.4400,-210.000
1545.4500,-210.000
1545.4600,-210.000
1545.4700, -78.343
1545.4800,-210.000
1545.4900, -80.835
1545.5000,-210.000
1545.5100,-210.000
1545.5200,-210.000
1545.5300,-210.000
1545.5400, -74.310
1545.5500, -76.120
1545.5600, -76.489
1545.5700, -73.141
1545.5800, -71.511
1545.5900, -75.441
1545.6000, -81.067
1545.6100,-210.000
1545.6200,-210.000
1545.6300, -85.840
1545.6400, -75.736
1545.6500, -71.255
1545.6600, -72.178
1545.6700, -76.017
1545.6800, -70.983
1545.6900,-210.000
1545.7000, -78.232
1545.7100,-210.000
1545.7200, -73.008
1545.7300, -74.260
1545.7400,-210.000
1545.7500,-210.000
1545.7600,-210.000
1545.7700, -74.677
1545.7800, -75.797
1545.7900, -71.537
1545.8000, -74.259
1545.8100, -85.253
1545.8200,-210.000
1545.8300, -71.192
1545.8400,-210.000
1545.8500, -72.259
1545.8600, -77.260
1545.8700, -78.325
1545.8800,-210.000
1545.8900,-210.000
1545.9000, -71.149
1545.9100, -72.044
1545.9200, -73.312
1545.9300, -73.362
1545.9400, -79.483
1545.9500, -69.461
1545.9600, -69.430
1545.9700, -80.403
1545.9800, -74.902
1545.9900, -87.447
1546.0000, -78.812
1546.0100, -73.282
1546.0200, -73.564
1546.0300, -76.406
1546.0400, -75.109
1546.0500,-210.000
1546.0600, -78.454
1546.0700,-210.000
1546.0800, -74.787
1546.0900,-210.000
1546.1000, -75.940
1546.1100,-210.000
1546.1200,-210.000
1546.1300, -78.937
1546.1400,-210.000
1546.1500, -69.219
1546.1600,-210.000
1546.1700, -69.819
1546.1800, -72.258
1546.1900, -74.752
1546.2000, -72.386
1546.2100, -76.766
1546.2200, -84.032
1546.2300,-210.000
1546.2400, -72.584
1546.2500, -75.987
1546.2600,-210.000
1546.2700,-100.993
1546.2800,-210.000
1546.2900, -72.104
1546.3000, -79.201
1546.3100, -76.090
1546.3200, -80.276
1546.3300,-210.000
1546.3400, -69.710
1546.3500, -69.839
1546.3600, -70.370
1546.3700, -77.959
1546.3800,-210.000
1546.3900,-210.000
1546.4000, -77.717
1546.4100, -71.227
1546.4200,-210.000
1546.4300,-210.000
1546.4400, -69.985
1546.4500, -80.638
1546.4600, -75.587
1546.4700, -71.388
1546.4800, -70.354
1546.4900, -78.122
1546.5000, -74.074
1546.5100, -74.730
1546.5200, -77.346
1546.5300,-210.000
1546.5400, -75.733
1546.5500, -69.679
1546.5600, -71.388
1546.5700,-210.000
1546.5800,-210.000
1546.5900,-210.000
1546.6000, -76.924
1546.6100, -71.378
1546.6200,-210.000
1546.6300,-210.000
1546.6400,-210.000
1546.6500,-210.000
1546.6600, -71.433
1546.6700,-210.000
1546.6800, -74.703
1546.6900, -70.819
1546.7000,-210.000
1546.7100, -77.172
1546.7200,-210.000
1546.7300, -71.595
1546.7400, -71.866
1546.7500, -72.201
1546.7600,-210.000
1546.7700, -79.939
1546.7800,-210.000
1546.7900, -73.309
1546.8000, -73.785
1546.8100, -73.070
1546.8200, -78.721
1546.8300, -85.250
1546.8400, -74.306
1546.8500, -73.599
1546.8600, -75.586
1546.8700, -72.424
1546.8800, -70.233
1546.8900,-210.000
1546.9000, -77.435
1546.9100,-210.000
1546.9200, -78.338
1546.9300, -74.620
1546.9400,-210.000
1546.9500, -72.515
1546.9600, -74.332
1546.9700,-210.000
1546.9800, -72.940
1546.9900,-210.000
1547.0000,-210.000
1547.0100,-210.000
1547.0200,-210.000
1547.0300, -82.142
1547.0400, -79.199
1547.0500, -74.842
1547.0600,-210.000
1547.0700, -79.648
1547.0800,-210.000
1547.0900, -75.323
1547.1000,-210.000
1547.1100, -76.049
1547.1200, -74.459
1547.1300, -76.686
1547.1400,-210.000
1547.1500,-210.000
1547.1600, -73.358
1547.1700,-210.000
1547.1800,-210.000
1547.1900,-210.000
1547.2000,-210.000
1547.2100,-210.000
1547.2200,-210.000
1547.2300, -75.671
1547.2400, -81.845
1547.2500,-210.000
1547.2600, -71.893
1547.2700, -75.105
1547.2800,-210.000
1547.2900, -87.315
1547.3000, -72.067
1547.3100, -70.711
1547.3200,-210.000
1547.3300,-210.000
1547.3400, -82.500
1547.3500, -76.241
1547.3600, -89.577
1547.3700,-210.000
1547.3800,-210.000
1547.3900,-210.000
1547.4000, -79.063
1547.4100, -77.727
1547.4200, -77.714
1547.4300, -72.447
1547.4400, -75.104
1547.4500, -73.607
1547.4600, -77.085
1547.4700, -73.198
1547.4800, -72.254
1547.4900,-210.000
1547.5000,-210.000
1547.5100,-210.000
1547.5200,-210.000
1547.5300,-210.000
1547.5400, -73.007
1547.5500, -81.704
1547.5600, -70.890
1547.5700, -68.546
1547.5800, -69.641
1547.5900, -75.266
1547.6000, -82.458
1547.6100,-210.000
1547.6200,-210.000
1547.6300, -72.568
1547.6400, -71.274
1547.6500, -71.884
1547.6600, -71.979
1547.6700, -75.321
1547.6800, -70.622
1547.6900, -70.347
1547.7000, -73.168
1547.7100,-210.000
1547.7200, -73.906
1547.7300, -72.682
1547.7400, -74.373
1547.7500, -71.348
1547.7600, -77.168
1547.7700,-210.000
1547.7800, -72.336
1547.7900, -73.827
1547.8000, -73.866
1547.8100, -76.652
1547.8200, -71.614
1547.8300, -73.157
1547.8400,-210.000
1547.8500, -71.503
1547.8600,-210.000
1547.8700, -74.154
1547.8800, -70.328
1547.8900, -81.566
1547.9000,-210.000
1547.9100, -76.248
1547.9200, -70.819
1547.9300,-210.000
1547.9400, -87.440
1547.9500,-210.000
1547.9600, -75.934
1547.9700, -74.838
1547.9800, -73.557
1547.9900, -77.203
1548.0000, -74.416
1548.0100, -74.724
1548.0200,-210.000
1548.0300,-210.000
1548.0400, -70.734
1548.0500, -78.070
1548.0600,-210.000
1548.0700, -73.269
1548.0800, -71.582
1548.0900, -73.200
1548.1000, -71.747
1548.1100,-210.000
1548.1200, -75.514
1548.1300,-210.000
1548.1400,-210.000
1548.1500, -75.666
1548.1600, -79.311
1548.1700, -78.445
1548.1800, -76.917
1548.1900, -76.758
1548.2000,-210.000
1548.2100,-210.000
1548.2200, -73.273
1548.2300, -72.966
1548.2400, -85.741
1548.2500, -75.606
1548.2600, -80.604
1548.2700,-210.000
1548.2800, -70.733
1548.2900,-210.000
1548.3000, -78.929
1548.3100,-210.000
1548.3200, -75.605
1548.3300,-210.000
1548.3400, -79.621
1548.3500, -70.386
1548.3600,-210.000
1548.3700,-210.000
1548.3800, -77.289
1548.3900, -78.856
1548.4000,-210.000
1548.4100, -73.408
1548.4200, -74.835
1548.4300, -73.408
1548.4400,-210.000
1548.4500, -75.253
1548.4600, -71.707
1548.4700,-210.000
1548.4800, -76.680
1548.4900,-210.000
1548.5000, -74.368
1548.5100, -72.574
1548.5200, -72.113
1548.5300,-210.000
1548.5400, -82.493
1548.5500, -86.505
1548.5600, -74.505
1548.5700, -72.540
1548.5800, -75.372
1548.5900, -79.472
1548.6000, -72.805
1548.6100, -71.800
1548.6200, -74.279
1548.6300, -76.156
1548.6400, -78.220
1548.6500,-210.000
1548.6600, -73.687
1548.6700, -76.175
1548.6800, -73.230
1548.6900, -72.711
1548.7000, -71.973
1548.7100, -74.504
1548.7200,-210.000
1548.7300,-210.000
1548.7400,-210.000
1548.7500, -71.944
1548.7600, -74.645
1548.7700,-210.000
1548.7800, -75.097
1548.7900, -72.375
1548.8000, -85.241
1548.8100,-210.000
1548.8200, -73.775
1548.8300, -70.788
1548.8400, -70.905
1548.8500,-210.000
1548.8600, -76.559
1548.8700,-210.000
1548.8800, -88.620
1548.8900,-210.000
1548.9000, -70.508
1548.9100, -78.006
1548.9200,-210.000
1548.9300,-210.000
1548.9400,-210.000
1548.9500, -76.393
1548.9600, -78.676
1548.9700,-210.000
1548.9800, -71.954
1548.9900, -77.160
1549.0000, -70.767
1549.0100, -79.617
1549.0200, -76.153
1549.0300, -74.104
1549.0400, -74.397
1549.0500, -84.723
1549.0600,-210.000
1549.0700,-210.000
1549.0800,-210.000
1549.0900,-210.000
1549.1000, -76.644
1549.1100, -81.944
1549.1200, -71.265
1549.1300, -74.147
1549.1400, -69.038
1549.1500, -70.416
1549.1600, -92.912
1549.1700, -73.227
1549.1800,-210.000
1549.1900,-210.000
1549.2000,-210.000
1549.2100, -75.782
1549.2200, -83.162
1549.2300,-210.000
1549.2400,-210.000
1549.2500, -71.420
1549.2600, -72.437
1549.2700, -77.333
1549.2800, -79.637
1549.2900,-210.000
1549.3000, -75.064
1549.3100, -72.617
1549.3200, -73.072
1549.3300, -70.079
1549.3400, -71.767
1549.3500,-210.000
1549.3600, -70.198
1549.3700, -73.954
1549.3800, -71.503
1549.3900, -72.777
1549.4000, -76.309
1549.4100, -78.325
1549.4200, -77.396
1549.4300, -78.796
1549.4400, -73.346
1549.4500, -74.689
1549.4600, -71.042
1549.4700, -73.475
1549.4800,-210.000
1549.4900,-210.000
1549.5000, -70.179
1549.5100, -72.297
1549.5200, -81.020
1549.5300, -71.114
1549.5400, -77.899
1549.5500,-210.000
1549.5600, -74.936
1549.5700, -87.430
1549.5800, -70.784
1549.5900,-210.000
1549.6000, -73.366
1549.6100, -74.499
1549.6200,-210.000
1549.6300, -77.606
1549.6400, -73.147
1549.6500, -74.318
1549.6600, -71.998
1549.6700, -74.640
1549.6800,-210.000
1549.6900,-210.000
1549.7000, -80.260
1549.7100,-210.000
1549.7200,-210.000
1549.7300,-210.000
1549.7400,-210.000
1549.7500,-210.000
1549.7600, -68.900
1549.7700, -79.466
1549.7800, -81.456
1549.7900, -69.527
1549.8000, -78.795
1549.8100, -79.146
1549.8200,-210.000
1549.8300, -78.569
1549.8400,-210.000
1549.8500, -71.492
1549.8600,-210.000
1549.8700,-210.000
1549.8800,-210.000
1549.8900,-210.000
1549.9000, -73.552
1549.9100, -82.787
1549.9200, -74.639
1549.9300, -73.681
1549.9400, -70.724
1549.9500, -70.900
1549.9600,-210.000
1549.9700, -70.025
1549.9800,-210.000
1549.9900, -74.393
1550.0000,-210.000
1550.0100, -76.073
1550.0200, -75.091
1550.0300, -86.498
1550.0400, -83.461
1550.0500,-210.000
1550.0600, -75.538
1550.0700, -72.925
1550.0800, -74.714
1550.0900,-210.000
1550.1000, -74.094
1550.1100, -71.923
1550.1200, -75.571
1550.1300, -70.862
1550.1400, -74.393
1550.1500, -72.409
1550.1600, -69.715
1550.1700, -70.648
1550.1800, -73.426
1550.1900, -74.017
1550.2000,-210.000
1550.2100, -74.929
1550.2200,-210.000
1550.2300, -78.213
1550.2400, -75.373
1550.2500, -73.400
1550.2600,-210.000
1550.2700, -79.465
1550.2800, -73.032
1550.2900, -74.687
1550.3000,-210.000
1550.3100, -77.798
1550.3200, -75.182
1550.3300, -81.454
1550.3400, -74.341
1550.3500, -71.922
1550.3600,-210.000
1550.3700,-210.000
1550.3800, -75.308
1550.3900, -76.100
1550.4000, -72.025
1550.4100, -71.393
1550.4200, -72.600
1550.4300, -71.194
1550.4400,-210.000
1550.4500, -79.809
1550.4600, -80.621
1550.4700, -74.826
1550.4800, -73.472
1550.4900, -70.718
1550.5000, -73.054
1550.5100, -83.840
1550.5200,-210.000
1550.5300, -76.034
1550.5400, -76.072
1550.5500, -72.268
1550.5600,-210.000
1550.5700, -77.155
1550.5800, -72.600
1550.5900, -94.560
1550.6000, -75.716
1550.6100, -75.778
1550.6200, -76.377
1550.6300,-210.000
1550.6400, -71.130
1550.6500, -74.093
1550.6600, -69.411
1550.6700, -70.552
1550.6800, -74.769
1550.6900, -73.088
1550.7000, -70.899
1550.7100,-210.000
1550.7200, -73.508
1550.7300, -76.034
1550.7400, -84.514
1550.7500, -74.638
1550.7600, -71.004
1550.7700, -78.847
1550.7800,-210.000
1550.7900, -85.234
1550.8000,-210.000
1550.8100,-210.000
1550.8200, -74.190
1550.8300,-210.000
1550.8400, -71.517
1550.8500, -78.211
1550.8600, -71.707
1550.8700, -72.582
1550.8800,-210.000
1550.8900, -73.120
1550.9000, -74.882
1550.9100, -78.235
1550.9200,-210.000
1550.9300, -77.796
1550.9400, -72.054
1550.9500, -74.450
1550.9600,-210.000
1550.9700, -72.379
1550.9800, -83.564
1550.9900, -81.017
1551.0000,-210.000
1551.0100, -74.184
1551.0200,-210.000
1551.0300,-210.000
1551.0400, -70.109
1551.0500, -81.046
1551.0600, -78.550
1551.0700,-210.000
1551.0800, -71.086
1551.0900,-210.000
1551.1000, -75.243
1551.1100, -73.020
1551.1200, -73.904
1551.1300, -77.603
1551.1400, -78.321
1551.1500, -70.042
1551.1600, -76.670
1551.1700,-210.000
1551.1800, -74.098
1551.1900, -85.730
1551.2000,-210.000
1551.2100, -71.517
1551.2200, -80.435
1551.2300,-210.000
1551.2400, -76.305
1551.2500, -73.773
1551.2600, -76.167
1551.2700, -78.846
1551.2800, -72.436
1551.2900, -79.300
1551.3000, -76.670
1551.3100,-210.000
1551.3200,-210.000
1551.3300, -75.119
1551.3400,-210.000
1551.3500, -77.190
1551.3600, -87.298
1551.3700, -75.568
1551.3800, -72.413
1551.3900, -68.338
1551.4000, -70.074
1551.4100, -81.291
1551.4200, -72.671
1551.4300, -71.762
1551.4400,-210.000
1551.4500, -69.473
1551.4600, -73.291
1551.4700, -72.954
1551.4800, -72.858
1551.4900, -74.881
1551.5000, -77.952
1551.5100, -75.180
1551.5200, -71.134
1551.5300, -70.314
1551.5400, -77.824
1551.5500, -72.023
1551.5600,-210.000
1551.5700, -73.143
1551.5800, -73.221
1551.5900,-210.000
1551.6000,-210.000
1551.6100,-210.000
1551.6200, -77.050
1551.6300, -71.734
1551.6400, -72.702
1551.6500, -70.645
1551.6600, -71.489
1551.6700, -74.403
1551.6800,-210.000
1551.6900,-210.000
1551.7000, -70.760
1551.7100, -71.844
1551.7200,-210.000
1551.7300,-100.973
1551.7400, -79.990
1551.7500, -76.668
1551.7600, -70.759
1551.7700,-210.000
1551.7800, -72.990
1551.7900, -73.152
1551.8000, -72.083
1551.8100, -77.997
1551.8200, -79.630
1551.8300,-210.000
1551.8400, -76.223
1551.8500, -84.254
1551.8600,-210.000
1551.8700, -73.325
1551.8800, -72.953
1551.8900, -72.551
1551.9000, -71.623
1551.9100, -77.068
1551.9200, -84.511
1551.9300,-210.000
1551.9400,-210.000
1551.9500, -72.083
1551.9600,-210.000
1551.9700, -76.550
1551.9800, -72.889
1551.9900, -81.044
1552.0000, -76.165
1552.0100, -78.702
1552.0200, -71.575
1552.0300, -73.152
1552.0400, -68.494
1552.0500,-210.000
1552.0600, -77.238
1552.0700,-210.000
1552.0800, -74.730
1552.0900, -70.498
1552.1000, -72.793
1552.1100, -78.843
1552.1200, -74.634
1552.1300, -71.732
1552.1400, -72.404
1552.1500, -72.436
1552.1600,-210.000
1552.1700, -79.297
1552.1800,-210.000
1552.1900, -72.021
1552.2000, -72.236
1552.2100, -72.842
1552.2200, -69.494
1552.2300, -79.629
1552.2400, -69.797
1552.2500, -70.058
1552.2600, -76.302
1552.2700, -72.396
1552.2800, -71.206
1552.2900, -72.520
1552.3000, -70.988
1552.3100, -70.173
1552.3200, -74.493
1552.3300,-210.000
1552.3400, -72.920
1552.3500, -74.822
1552.3600,-210.000
1552.3700,-210.000
1552.3800, -78.564
1552.3900, -71.234
1552.4000, -71.230
1552.4100, -74.538
1552.4200, -79.139
1552.4300,-210.000
1552.4400, -69.852
1552.4500, -70.978
1552.4600, -68.837
1552.4700, -71.621
1552.4800, -75.992
1552.4900, -80.082
1552.5000, -73.338
1552.5100, -71.480
1552.5200, -73.179
1552.5300, -72.887
1552.5400,-210.000
1552.5500, -72.887
1552.5600,-210.000
1552.5700, -74.633
1552.5800,-210.000
1552.5900,-210.000
1552.6000,-210.000
1552.6100, -76.143
1552.6200, -75.416
1552.6300, -72.330
1552.6400, -76.822
1552.6500, -71.550
1552.6600, -70.897
1552.6700, -73.946
1552.6800,-210.000
1552.6900, -73.854
1552.7000, -72.126
1552.7100, -77.187
1552.7200,-210.000
1552.7300, -72.363
1552.7400, -73.843
1552.7500, -73.139
1552.7600,-210.000
1552.7700, -82.479
1552.7800, -73.015
1552.7900, -77.491
1552.8000, -76.901
1552.8100, -71.229
1552.8200, -71.950
1552.8300, -73.587
1552.8400, -69.242
1552.8500,-210.000
1552.8600, -79.295
1552.8700, -70.776
1552.8800, -71.106
1552.8900, -72.760
1552.9000, -71.063
1552.9100, -76.300
1552.9200, -75.916
1552.9300, -74.632
1552.9400, -82.780
1552.9500, -79.177
1552.9600,-210.000
1552.9700, -72.179
1552.9800, -75.246
1552.9900, -71.433
1553.0000, -73.808
1553.0100, -72.876
1553.0200, -77.598
1553.0300, -78.562
1553.0400, -75.358
1553.0500, -75.844
1553.0600, -71.793
1553.0700, -75.301
1553.0800, -73.690
1553.0900, -74.651
1553.1000, -69.249
1553.1100, -70.093
1553.1200, -72.206
1553.1300, -72.559
1553.1400, -76.056
1553.1500, -78.174
1553.1600, -71.032
1553.1700, -71.501
1553.1800,-210.000
1553.1900, -73.538
1553.2000, -77.284
1553.2100,-210.000
1553.2200, -80.469
1553.2300, -74.819
1553.2400,-210.000
1553.2500, -77.503
1553.2600, -69.402
1553.2700, -71.524
1553.2800, -73.807
1553.2900, -75.083
1553.3000, -76.161
1553.3100,-210.000
1553.3200, -89.555
1553.3300,-210.000
1553.3400,-210.000
1553.3500, -77.819
1553.3600, -76.589
1553.3700, -78.663
1553.3800, -75.414
1553.3900, -75.365
1553.4000, -75.588
1553.4100, -71.537
1553.4200, -74.352
1553.4300, -69.978
1553.4400, -71.230
1553.4500, -73.417
1553.4600, -73.013
1553.4700,-210.000
1553.4800, -76.588
1553.4900,-210.000
1553.5000, -73.356
1553.5100, -76.992
1553.5200, -71.408
1553.5300, -70.891
1553.5400, -75.082
1553.5500, -76.899
1553.5600, -71.563
1553.5700, -72.516
1553.5800, -73.215
1553.5900, -72.044
1553.6000, -70.822
1553.6100, -70.753
1553.6200, -71.702
1553.6300, -72.984
1553.6400, -73.416
1553.6500, -82.476
1553.6600, -70.983
1553.6700, -69.593
1553.6800, -70.820
1553.6900, -82.508
1553.7000,-210.000
1553.7100, -78.695
1553.7200,-210.000
1553.7300, -71.175
1553.7400,-210.000
1553.7500, -72.358
1553.7600, -72.916
1553.7700, -76.989
1553.7800, -68.417
1553.7900, -76.896
1553.8000, -74.675
1553.8100, -73.292
1553.8200, -71.962
1553.8300, -70.911
1553.8400, -68.485
1553.8500,-210.000
1553.8600,-210.000
1553.8700, -73.963
1553.8800, -70.088
1553.8900, -74.626
1553.9000, -84.444
1553.9100,-210.000
1553.9200, -74.870
1553.9300,-210.000
1553.9400, -73.132
1553.9500, -71.518
1553.9600, -73.892
1553.9700, -74.781
1553.9800, -74.431
1553.9900, -69.771
1554.0000, -79.909
1554.0100, -72.164
1554.0200, -70.232
1554.0300, -77.379
1554.0400, -71.919
1554.0500, -69.935
1554.0600, -74.819
1554.0700,-210.000
1554.0800, -73.278
1554.0900,-210.000
1554.1000, -69.978
1554.1100, -69.173
1554.1200, -70.615
1554.1300, -71.424
1554.1400, -76.800
1554.1500, -72.421
1554.1600, -71.047
1554.1700, -68.857
1554.1800, -68.791
1554.1900, -69.681
1554.2000, -70.791
1554.2100, -68.857
1554.2200, -69.279
1554.2300, -71.491
1554.2400, -68.755
1554.2500, -69.200
1554.2600, -68.731
1554.2700, -68.574
1554.2800, -68.894
1554.2900, -67.920
1554.3000, -69.480
1554.3100, -67.714
1554.3200, -66.407
1554.3300, -67.270
1554.3400, -65.586
1554.3500, -67.270
1554.3600, -68.198
1554.3700, -67.561
1554.3800, -66.080
1554.3900, -66.381
1554.4000, -66.643
1554.4100, -65.531
1554.4200, -67.063
1554.4300, -66.090
1554.4400, -66.284
1554.4500, -67.025
1554.4600, -65.937
1554.4700, -67.484
1554.4800, -66.556
1554.4900, -66.946
1554.5000, -70.197
1554.5100, -68.853
1554.5200, -67.871
1554.5300, -67.744
1554.5400, -68.372
1554.5500, -68.967
1554.5600, -67.558
1554.5700, -68.807
1554.5800, -68.260
1554.5900, -73.233
1554.6000, -70.609
1554.6100, -66.984
1554.6200, -68.394
1554.6300, -67.688
1554.6400, -70.682
1554.6500, -66.623
1554.6600, -68.363
1554.6700, -69.503
1554.6800, -72.716
1554.6900, -70.643
1554.7000, -69.321
1554.7100, -67.363
1554.7200, -70.653
1554.7300, -70.607
1554.7400, -71.943
1554.7500, -68.939
1554.7600, -68.499
1554.7700, -69.316
1554.7800, -68.240
1554.7900, -72.095
1554.8000, -79.785
1554.8100, -73.199
1554.8200, -74.292
1554.8300, -74.634
1554.8400, -70.938
1554.8500, -74.639
1554.8600, -68.487
1554.8700, -68.686
1554.8800, -70.509
1554.8900, -73.006
1554.9000, -70.135
1554.9100, -68.947
1554.9200, -69.361
1554.9300, -70.455
1554.9400, -71.361
1554.9500, -77.674
1554.9600, -72.152
1554.9700, -70.344
1554.9800, -70.290
1554.9900, -71.599
1555.0000, -70.639
1555.0100, -71.599
1555.0200,-210.000
1555.0300, -72.739
1555.0400, -70.412
1555.0500, -69.857
1555.0600, -69.885
1555.0700, -75.894
1555.0800, -70.432
1555.0900, -68.672
1555.1000, -69.820
1555.1100, -70.165
1555.1200,-210.000
1555.1300, -73.300
1555.1400, -73.161
1555.1500, -70.494
1555.1600, -69.679
1555.1700, -71.996
1555.1800,-210.000
1555.1900, -70.963
1555.2000, -68.713
1555.2100, -68.621
1555.2200,-210.000
1555.2300, -70.430
1555.2400, -70.655
1555.2500, -70.962
1555.2600, -71.501
1555.2700, -74.112
1555.2800, -77.125
1555.2900, -73.298
1555.3000, -69.511
1555.3100, -69.939
1555.3200, -69.955
1555.3300, -78.816
1555.3400, -70.521
1555.3500, -71.330
1555.3600, -69.129
1555.3700, -70.429
1555.3800, -69.843
1555.3900, -70.338
1555.4000, -69.477
1555.4100, -69.864
1555.4200, -71.013
1555.4300, -73.476
1555.4400, -70.963
1555.4500, -71.177
1555.4600, -69.360
1555.4700, -71.966
1555.4800, -79.960
1555.4900, -73.366
1555.5000, -70.043
1555.5100, -68.667
1555.5200, -78.886
1555.5300, -68.666
1555.5400, -73.780
1555.5500, -68.597
1555.5600, -70.265
1555.5700,-210.000
1555.5800, -70.303
1555.5900, -67.857
1555.6000, -71.544
1555.6100, -71.102
1555.6200, -75.324
1555.6300, -74.735
1555.6400, -68.358
1555.6500, -68.359
1555.6600, -68.143
1555.6700, -76.272
1555.6800, -74.894
1555.6900, -68.230
1555.7000, -72.997
1555.7100, -67.887
1555.7200, -70.796
1555.7300, -69.779
1555.7400, -69.090
1555.7500, -73.111
1555.7600, -73.701
1555.7700, -72.566
1555.7800, -73.780
1555.7900, -72.697
1555.8000, -74.108
1555.8100, -72.532
1555.8200, -69.181
1555.8300, -70.553
1555.8400, -71.405
1555.8500, -77.359
1555.8600, -77.679
1555.8700, -70.126
1555.8800, -74.907
1555.8900, -72.510
1555.9000, -72.812
1555.9100, -74.907
1555.9200, -72.609
1555.9300, -69.751
1555.9400, -72.234
1555.9500, -72.670
1555.9600, -69.860
1555.9700, -70.143
1555.9800, -75.682
1555.9900, -74.907
1556.0000, -73.574
1556.0100,-210.000
1556.0200, -74.108
1556.0300, -68.117
1556.0400, -74.011
1556.0500, -76.343
1556.0600, -70.330
1556.0700, -72.145
1556.0800, -70.959
1556.0900, -70.026
1556.1000, -69.168
1556.1100, -70.460
1556.1200, -70.386
1556.1300, -69.629
1556.1400,-210.000
1556.1500, -73.230
1556.1600, -73.021
1556.1700, -73.608
1556.1800, -68.231
1556.1900, -71.079
1556.2000, -71.183
1556.2100, -72.813
1556.2200, -69.808
1556.2300, -69.734
1556.2400, -71.759
1556.2500, -70.266
1556.2600, -70.469
1556.2700, -75.623
1556.2800, -72.235
1556.2900, -77.908
1556.3000, -70.614
1556.3100, -71.328
1556.3200, -70.808
1556.3300, -70.363
1556.3400, -73.310
1556.3500, -69.629
1556.3600, -72.318
1556.3700, -76.520
1556.3800, -70.889
1556.3900, -78.535
1556.4000, -72.500
1556.4100, -74.558
1556.4200, -69.936
1556.4300, -70.428
1556.4400, -68.764
1556.4500, -69.427
1556.4600, -72.336
1556.4700, -72.376
1556.4800, -68.478
1556.4900, -67.572
1556.5000, -69.753
1556.5100, -70.491
1556.5200, -71.570
1556.5300, -69.092
1556.5400, -69.848
1556.5500, -67.423
1556.5600, -69.092
1556.5700, -71.056
1556.5800, -68.704
1556.5900, -68.048
1556.6000, -70.982
1556.6100, -70.388
1556.6200, -69.047
1556.6300, -70.791
1556.6400, -70.654
1556.6500, -67.814
1556.6600, -69.423
1556.6700, -69.863
1556.6800, -72.829
1556.6900, -72.088
1556.7000, -71.733
1556.7100, -76.876
1556.7200, -71.994
1556.7300, -71.081
1556.7400, -69.293
1556.7500, -70.822
1556.7600, -71.965
1556.7700, -69.849
1556.7800, -70.492
1556.7900, -70.365
1556.8000, -69.772
1556.8100, -71.295
1556.8200, -73.114
1556.8300, -69.853
1556.8400, -71.622
1556.8500, -66.984
1556.8600, -71.765
1556.8700, -69.249
1556.8800, -71.812
1556.8900, -72.241
1556.9000, -75.819
1556.9100, -72.957
1556.9200, -73.412
1556.9300, -71.819
1556.9400, -73.738
1556.9500, -76.205
1556.9600, -69.900
1556.9700, -70.462
1556.9800, -69.579
1556.9900, -69.378
1557.0000, -69.366
1557.0100, -70.265
1557.0200, -70.270
1557.0300, -77.064
1557.0400, -69.329
1557.0500, -69.601
1557.0600, -69.897
1557.0700, -75.334
1557.0800, -69.737
1557.0900, -70.693
1557.1000, -76.042
1557.1100, -70.820
1557.1200, -70.823
1557.1300, -70.051
1557.1400, -77.767
1557.1500, -75.091
1557.1600, -70.147
1557.1700, -79.434
1557.1800, -70.953
1557.1900, -69.994
1557.2000, -68.502
1557.2100, -68.099
1557.2200, -68.698
1557.2300, -70.063
1557.2400, -71.678
1557.2500, -70.255
1557.2600, -68.870
1557.2700, -68.272
1557.2800, -68.843
1557.2900, -70.636
1557.3000, -76.206
1557.3100, -73.395
1557.3200, -69.037
1557.3300, -68.453
1557.3400, -68.318
1557.3500, -70.792
1557.3600, -71.180
1557.3700, -71.455
1557.3800, -70.187
1557.3900, -68.667
1557.4000, -72.026
1557.4100, -68.133
1557.4200, -72.606
1557.4300, -73.591
1557.4400, -68.818
1557.4500, -67.528
1557.4600, -70.014
1557.4700, -71.462
1557.4800, -71.456
1557.4900, -72.554
1557.5000, -68.014
1557.5100, -67.531
1557.5200, -67.111
1557.5300, -68.636
1557.5400, -68.123
1557.5500, -67.061
1557.5600, -70.390
1557.5700, -70.935
1557.5800, -67.694
1557.5900, -67.944
1557.6000, -68.719
1557.6100, -67.412
1557.6200, -68.296
1557.6300, -69.157
1557.6400, -67.087
1557.6500, -67.259
1557.6600, -67.061
1557.6700, -67.036
1557.6800, -67.464
1557.6900, -64.706
1557.7000, -64.898
1557.7100, -65.798
1557.7200, -64.805
1557.7300, -64.572
1557.7400, -64.745
1557.7500, -64.485
1557.7600, -64.017
1557.7700, -62.602
1557.7800, -62.586
1557.7900, -62.411
1557.8000, -61.665
1557.8100, -61.412
1557.8200, -60.945
1557.8300, -60.110
1557.8400, -59.554
1557.8500, -59.339
1557.8600, -58.902
1557.8700, -58.017
1557.8800, -57.401
1557.8900, -56.925
1557.9000, -56.163
1557.9100, -55.459
1557.9200, -54.698
1557.9300, -53.957
1557.9400, -53.110
1557.9500, -52.379
1557.9600, -51.581
1557.9700, -51.038
1557.9800, -50.227
1557.9900, -49.758
1558.0000, -49.209
1558.0100, -48.986
1558.0200, -48.812
1558.0300, -48.835
1558.0400, -48.945
1558.0500, -49.288
1558.0600, -49.556
1558.0700, -50.123
1558.0800, -50.450
1558.0900, -50.987
1558.1000, -51.375
1558.1100, -51.968
1558.1200, -52.423
1558.1300, -52.713
1558.1400, -53.163
1558.1500, -53.583
1558.1600, -53.918
1558.1700, -54.262
1558.1800, -54.762
1558.1900, -54.986
1558.2000, -55.324
1558.2100, -55.506
1558.2200, -55.704
1558.2300, -55.995
1558.2400, -56.228
1558.2500, -56.535
1558.2600, -56.576
1558.2700, -56.862
1558.2800, -57.005
1558.2900, -57.262
1558.3000, -57.277
1558.3100, -57.668
1558.3200, -57.581
1558.3300, -57.794
1558.3400, -58.201
1558.3500, -58.384
1558.3600, -58.172
1558.3700, -58.291
1558.3800, -58.345
1558.3900, -58.450
1558.4000, -58.460
1558.4100, -58.898
1558.4200, -59.045
1558.4300, -59.125
1558.4400, -59.205
1558.4500, -59.139
1558.4600, -58.954
1558.4700, -59.118
1558.4800, -59.562
1558.4900, -59.589
1558.5000, -59.594
1558.5100, -59.629
1558.5200, -59.468
1558.5300, -59.743
1558.5400, -59.707
1558.5500, -59.708
1558.5600, -59.695
1558.5700, -59.898
1558.5800, -59.800
1558.5900, -59.950
1558.6000, -60.104
1558.6100, -59.751
1558.6200, -60.164
1558.6300, -60.227
1558.6400, -60.039
1558.6500, -60.269
1558.6600, -60.112
1558.6700, -59.861
1558.6800, -60.100
1558.6900, -60.252
1558.7000, -60.756
1558.7100, -60.661
1558.7200, -60.510
1558.7300, -60.426
1558.7400, -60.838
1558.7500, -60.492
1558.7600, -60.968
1558.7700, -60.378
1558.7800, -60.251
1558.7900, -60.251
1558.8000, -60.608
1558.8100, -60.575
1558.8200, -60.538
1558.8300, -60.638
1558.8400, -60.228
1558.8500, -60.267
1558.8600, -60.792
1558.8700, -60.931
1558.8800, -60.647
1558.8900, -60.316
1558.9000, -60.789
1558.9100, -60.642
1558.9200, -60.773
1558.9300, -61.088
1558.9400, -60.679
1558.9500, -60.783
1558.9600, -60.825
1558.9700, -61.073
1558.9800, -60.920
1558.9900, -61.063
1559.0000, -60.940
1559.0100, -60.537
1559.0200, -60.942
1559.0300, -60.767
1559.0400, -60.904
1559.0500, -61.030
1559.0600, -60.724
1559.0700, -61.004
1559.0800, -60.999
1559.0900, -60.726
1559.1000, -60.784
1559.1100, -60.823
1559.1200, -60.800
1559.1300, -60.894
1559.1400, -60.725
1559.1500, -61.297
1559.1600, -60.703
1559.1700, -60.817
1559.1800, -61.114
1559.1900, -61.121
1559.2000, -60.835
1559.2100, -60.813
1559.2200, -60.742
1559.2300, -61.038
1559.2400, -61.214
1559.2500, -61.378
1559.2600, -60.935
1559.2700, -60.796
1559.2800, -60.899
1559.2900, -60.958
1559.3000, -60.841
1559.3100, -61.078
1559.3200, -60.998
1559.3300, -60.663
1559.3400, -60.625
1559.3500, -60.964
1559.3600, -60.564
1559.3700, -60.820
1559.3800, -60.723
1559.3900, -60.679
1559.4000, -60.618
1559.4100, -61.157
1559.4200, -60.955
1559.4300, -60.434
1559.4400, -60.876
1559.4500, -60.701
1559.4600, -60.818
1559.4700, -60.461
1559.4800, -60.446
1559.4900, -60.433
1559.5000, -60.629
1559.5100, -60.512
1559.5200, -60.700
1559.5300, -60.368
1559.5400, -60.160
1559.5500, -60.332
1559.5600, -60.830
1559.5700, -60.620
1559.5800, -60.552
1559.5900, -60.828
1559.6000, -60.410
1559.6100, -60.293
1559.6200, -60.814
1559.6300, -60.554
1559.6400, -60.610
1559.6500, -61.165
1559.6600, -60.672
1559.6700, -60.675
1559.6800, -60.511
1559.6900, -59.967
1559.7000, -60.412
1559.7100, -60.250
1559.7200, -60.505
1559.7300, -60.460
1559.7400, -60.554
1559.7500, -60.888
1559.7600, -60.484
1559.7700, -60.273
1559.7800, -60.537
1559.7900, -60.643
1559.8000, -60.242
1559.8100, -60.420
1559.8200, -60.328
1559.8300, -60.823
1559.8400, -60.021
1559.8500, -59.962
1559.8600, -60.010
1559.8700, -60.203
1559.8800, -60.159
1559.8900, -60.423
1559.9000, -60.361
1559.9100, -60.148
1559.9200, -60.335
1559.9300, -60.380
1559.9400, -60.415
1559.9500, -60.436
1559.9600, -60.035
1559.9700, -59.832
1559.9800, -59.996
1559.9900, -60.767
1560.0000, -59.989
1560.0100, -60.001
1560.0200, -59.878
1560.0300, -60.045
1560.0400, -60.000
1560.0500, -59.947
1560.0600, -59.971
1560.0700, -59.957
1560.0800, -59.869
1560.0900, -59.823
1560.1000, -60.014
1560.1100, -59.773
1560.1200, -59.934
1560.1300, -59.925
1560.1400, -59.868
1560.1500, -59.974
1560.1600, -59.995
1560.1700, -60.015
1560.1800, -59.756
1560.1900, -59.660
1560.2000, -59.870
1560.2100, -59.912
1560.2200, -59.409
1560.2300, -59.466
1560.2400, -59.777
1560.2500, -59.871
1560.2600, -59.650
1560.2700, -59.547
1560.2800, -59.550
1560.2900, -59.429
1560.3000, -59.363
1560.3100, -59.285
1560.3200, -59.626
1560.3300, -59.680
1560.3400, -59.543
1560.3500, -59.779
1560.3600, -59.739
1560.3700, -59.419
1560.3800, -59.602
1560.3900, -59.834
1560.4000, -59.460
1560.4100, -59.480
1560.4200, -59.549
1560.4300, -59.452
1560.4400, -59.557
1560.4500, -59.489
1560.4600, -59.191
1560.4700, -59.584
1560.4800, -59.407
1560.4900, -59.507
1560.5000, -59.040
1560.5100, -59.326
1560.5200, -59.214
1560.5300, -59.443
1560.5400, -59.165
1560.5500, -59.242
1560.5600, -59.209
1560.5700, -59.120
1560.5800, -59.370
1560.5900, -59.164
1560.6000, -59.207
1560.6100, -58.982
1560.6200, -59.068
1560.6300, -59.056
1560.6400, -58.883
1560.6500, -59.024
1560.6600, -58.937
1560.6700, -59.054
1560.6800, -58.857
1560.6900, -59.188
1560.7000, -59.078
1560.7100, -58.863
1560.7200, -59.042
1560.7300, -59.109
1560.7400, -58.839
1560.7500, -58.862
1560.7600, -58.966
1560.7700, -58.678
1560.7800, -59.047
1560.7900, -58.816
1560.8000, -59.008
1560.8100, -58.988
1560.8200, -58.824
1560.8300, -58.840
1560.8400, -58.658
1560.8500, -58.897
1560.8600, -58.607
1560.8700, -58.749
1560.8800, -58.623
1560.8900, -58.816
1560.9000, -58.656
1560.9100, -58.599
1560.9200, -58.532
1560.9300, -58.784
1560.9400, -58.823
1560.9500, -58.497
1560.9600, -58.498
1560.9700, -58.468
1560.9800, -58.437
1560.9900, -58.467
1561.0000, -58.573
1561.0100, -58.345
1561.0200, -58.524
1561.0300, -58.419
1561.0400, -58.455
1561.0500, -58.319
1561.0600, -58.310
1561.0700, -58.484
1561.0800, -58.285
1561.0900, -58.159
1561.1000, -58.213
1561.1100, -58.407
1561.1200, -58.374
1561.1300, -58.152
1561.1400, -58.147
1561.1500, -58.295
1561.1600, -58.129
1561.1700, -58.372
1561.1800, -58.230
1561.1900, -58.121
1561.2000, -58.263
1561.2100, -58.280
1561.2200, -58.187
1561.2300, -58.098
1561.2400, -58.142
1561.2500, -57.965
1561.2600, -57.793
1561.2700, -58.378
1561.2800, -58.184
1561.2900, -58.108
1561.3000, -58.063
1561.3100, -58.203
1561.3200, -58.097
1561.3300, -58.184
1561.3400, -57.997
1561.3500, -57.831
1561.3600, -57.916
1561.3700, -57.921
1561.3800, -58.086
1561.3900, -57.748
1561.4000, -57.682
1561.4100, -57.760
1561.4200, -57.897
1561.4300, -57.981
1561.4400, -57.812
1561.4500, -57.910
1561.4600, -57.734
1561.4700, -57.710
1561.4800, -57.946
1561.4900, -57.938
1561.5000, -57.815
1561.5100, -57.642
1561.5200, -57.615
1561.5300, -57.721
1561.5400, -57.727
1561.5500, -57.489
1561.5600, -57.525
1561.5700, -57.457
1561.5800, -57.504
1561.5900, -57.512
1561.6000, -57.459
1561.6100, -57.627
1561.6200, -57.583
1561.6300, -57.384
1561.6400, -57.492
1561.6500, -57.469
1561.6600, -57.523
1561.6700, -57.599
1561.6800, -57.399
1561.6900, -57.366
1561.7000, -57.609
1561.7100, -57.347
1561.7200, -57.413
1561.7300, -57.396
1561.7400, -57.299
1561.7500, -57.329
1561.7600, -57.354
1561.7700, -57.429
1561.7800, -57.321
1561.7900, -57.358
1561.8000, -57.269
1561.8100, -57.332
1561.8200, -57.351
1561.8300, -57.252
1561.8400, -57.234
1561.8500, -57.283
1561.8600, -57.322
1561.8700, -57.152
1561.8800, -57.033
1561.8900, -57.096
1561.9000, -57.075
1561.9100, -57.164
1561.9200, -57.114
1561.9300, -57.016
1561.9400, -56.942
1561.9500, -56.980
1561.9600, -57.184
1561.9700, -57.110
1561.9800, -57.051
1561.9900, -57.003
1562.0000, -56.980
1562.0100, -56.887
1562.0200, -56.910
1562.0300, -57.000
1562.0400, -57.009
1562.0500, -57.062
1562.0600, -56.951
1562.0700, -57.158
1562.0800, -56.923
1562.0900, -56.899
1562.1000, -57.005
1562.1100, -57.046
1562.1200, -56.990
1562.1300, -56.808
1562.1400, -56.934
1562.1500, -56.789
1562.1600, -56.701
1562.1700, -56.748
1562.1800, -56.881
1562.1900, -56.771
1562.2000, -56.961
1562.2100, -57.003
1562.2200, -56.760
1562.2300, -56.719
1562.2400, -56.727
1562.2500, -56.743
1562.2600, -56.761
1562.2700, -56.696
1562.2800, -56.788
1562.2900, -56.697
1562.3000, -56.785
1562.3100, -56.750
1562.3200, -56.736
1562.3300, -56.711
1562.3400, -56.455
1562.3500, -56.540
1562.3600, -56.699
1562.3700, -56.642
1562.3800, -56.547
1562.3900, -56.747
1562.4000, -56.567
1562.4100, -56.564
1562.4200, -56.433
1562.4300, -56.475
1562.4400, -56.621
1562.4500, -56.442
1562.4600, -56.493
1562.4700, -56.565
1562.4800, -56.346
1562.4900, -56.435
1562.5000, -56.321
1562.5100, -56.425
1562.5200, -56.281
1562.5300, -56.300
1562.5400, -56.223
1562.5500, -56.230
1562.5600, -56.222
1562.5700, -56.199
1562.5800, -56.162
1562.5900, -56.011
1562.6000, -56.018
1562.6100, -55.996
1562.6200, -55.923
1562.6300, -55.799
1562.6400, -55.772
1562.6500, -55.694
1562.6600, -55.670
1562.6700, -55.568
1562.6800, -55.331
1562.6900, -55.334
1562.7000, -55.117
1562.7100, -55.018
1562.7200, -54.865
1562.7300, -54.772
1562.7400, -54.655
1562.7500, -54.413
1562.7600, -54.179
1562.7700, -54.012
1562.7800, -53.792
1562.7900, -53.562
1562.8000, -53.230
1562.8100, -53.148
1562.8200, -52.855
1562.8300, -52.432
1562.8400, -52.134
1562.8500, -51.711
1562.8600, -51.448
1562.8700, -51.044
1562.8800, -50.680
1562.8900, -50.088
1562.9000, -49.782
1562.9100, -49.353
1562.9200, -48.640
1562.9300, -48.025
1562.9400, -47.567
1562.9500, -46.746
1562.9600, -45.915
1562.9700, -44.480
1562.9800, -43.580
1562.9900, -42.968
1563.0000, -41.664
1563.0100, -41.319
1563.0200, -40.891
1563.0300, -39.977
1563.0400, -38.775
1563.0500, -37.530
1563.0600, -35.712
1563.0700, -33.995
1563.0800, -31.398
1563.0900, -30.126
1563.1000, -23.997
1563.1100, -23.225
1563.1200, -18.505
1563.1300, -18.026
1563.1400, -18.212
1563.1500, -19.873
1563.1600, -24.472
1563.1700, -28.751
1563.1800, -31.516
1563.1900, -33.836
1563.2000, -35.203
1563.2100, -36.438
1563.2200, -37.083
1563.2300, -37.862
1563.2400, -38.517
1563.2500, -38.693
1563.2600, -39.036
1563.2700, -39.448
1563.2800, -39.932
1563.2900, -40.421
1563.3000, -41.274
1563.3100, -41.837
1563.3200, -42.195
1563.3300, -42.511
1563.3400, -42.802
1563.3500, -43.020
1563.3600, -43.272
1563.3700, -43.470
1563.3800, -43.661
1563.3900, -43.877
1563.4000, -43.983
1563.4100, -44.190
1563.4200, -44.313
1563.4300, -44.470
1563.4400, -44.515
1563.4500, -44.764
1563.4600, -44.801
1563.4700, -44.887
1563.4800, -45.036
1563.4900, -45.049
1563.5000, -45.233
1563.5100, -45.214
1563.5200, -45.381
1563.5300, -45.427
1563.5400, -45.503
1563.5500, -45.556
1563.5600, -45.566
1563.5700, -45.679
1563.5800, -45.617
1563.5900, -45.746
1563.6000, -45.785
1563.6100, -45.818
1563.6200, -45.893
1563.6300, -45.866
1563.6400, -46.004
1563.6500, -45.953
1563.6600, -46.024
1563.6700, -45.971
1563.6800, -46.028
1563.6900, -46.093
1563.7000, -46.002
1563.7100, -46.107
1563.7200, -46.044
1563.7300, -46.078
1563.7400, -46.084
1563.7500, -46.025
1563.7600, -46.115
1563.7700, -46.133
1563.7800, -46.194
1563.7900, -46.143
1563.8000, -46.136
1563.8100, -46.082
1563.8200, -46.173
1563.8300, -46.059
1563.8400, -46.207
1563.8500, -46.125
1563.8600, -46.145
1563.8700, -46.164
1563.8800, -45.974
1563.8900, -46.184
1563.9000, -46.026
1563.9100, -46.042
1563.9200, -45.922
1563.9300, -46.074
1563.9400, -45.905
1563.9500, -45.863
1563.9600, -45.909
1563.9700, -45.811
1563.9800, -45.928
1563.9900, -45.866
1564.0000, -45.797
1564.0100, -45.708
1564.0200, -45.755
1564.0300, -45.537
1564.0400, -45.697
1564.0500, -45.634
1564.0600, -45.635
1564.0700, -45.757
1564.0800, -45.646
1564.0900, -45.642
1564.1000, -45.556
1564.1100, -45.603
1564.1200, -45.533
1564.1300, -45.559
1564.1400, -45.497
1564.1500, -45.573
1564.1600, -45.397
1564.1700, -45.475
1564.1800, -45.298
1564.1900, -45.359
1564.2000, -45.330
1564.2100, -45.282
1564.2200, -45.373
1564.2300, -45.186
1564.2400, -45.354
1564.2500, -45.268
1564.2600, -45.170
1564.2700, -45.167
1564.2800, -45.250
1564.2900, -45.215
1564.3000, -45.172
1564.3100, -45.196
1564.3200, -45.226
1564.3300, -45.171
1564.3400, -45.231
1564.3500, -45.198
1564.3600, -45.244
1564.3700, -45.214
1564.3800, -45.193
1564.3900, -45.206
1564.4000, -45.063
1564.4100, -45.092
1564.4200, -45.080
1564.4300, -45.103
1564.4400, -44.927
1564.4500, -45.012
1564.4600, -45.046
1564.4700, -45.012
1564.4800, -44.920
1564.4900, -44.832
1564.5000, -45.035
1564.5100, -44.887
1564.5200, -44.929
1564.5300, -44.984
1564.5400, -45.019
1564.5500, -45.112
1564.5600, -45.030
1564.5700, -45.106
1564.5800, -45.143
1564.5900, -45.204
1564.6000, -45.026
1564.6100, -45.025
1564.6200, -45.118
1564.6300, -45.173
1564.6400, -45.145
1564.6500, -45.283
1564.6600, -44.971
1564.6700, -45.073
1564.6800, -45.211
1564.6900, -45.097
1564.7000, -45.324
1564.7100, -45.036
1564.7200, -45.236
1564.7300, -45.066
1564.7400, -45.127
1564.7500, -45.042
1564.7600, -45.056
1564.7700, -45.194
1564.7800, -45.029
1564.7900, -45.249
1564.8000, -45.152
1564.8100, -45.480
1564.8200, -45.299
1564.8300, -45.321
1564.8400, -45.491
1564.8500, -45.418
1564.8600, -45.514
1564.8700, -45.384
1564.8800, -45.596
1564.8900, -45.518
1564.9000, -45.573
1564.9100, -45.573
1564.9200, -45.592
1564.9300, -45.585
1564.9400, -45.558
1564.9500, -45.612
1564.9600, -45.598
1564.9700, -45.685
1564.9800, -45.661
1564.9900, -45.710
1565.0000, -45.662
1565.0100, -45.733
1565.0200, -45.784
1565.0300, -45.767
1565.0400, -45.713
1565.0500, -45.666
1565.0600, -45.744
1565.0700, -45.757
1565.0800, -45.836
1565.0900, -45.803
1565.1000, -45.775
1565.1100, -45.761
1565.1200, -45.737
1565.1300, -45.864
1565.1400, -45.853
1565.1500, -45.909
1565.1600, -45.862
1565.1700, -45.890
1565.1800, -45.784
1565.1900, -45.884
1565.2000, -45.827
1565.2100, -45.933
1565.2200, -45.924
1565.2300, -45.943
1565.2400, -45.946
1565.2500, -45.915
1565.2600, -45.977
1565.2700, -45.896
1565.2800, -45.989
1565.2900, -45.999
1565.3000, -45.956
1565.3100, -46.004
1565.3200, -46.031
1565.3300, -46.030
1565.3400, -45.993
1565.3500, -45.991
1565.3600, -45.996
1565.3700, -46.003
1565.3800, -46.048
1565.3900, -45.993
1565.4000, -45.982
1565.4100, -46.002
1565.4200, -46.034
1565.4300, -46.012
1565.4400, -46.031
1565.4500, -45.983
1565.4600, -46.012
1565.4700, -46.016
1565.4800, -46.050
1565.4900, -46.031
1565.5000, -46.040
1565.5100, -46.007
1565.5200, -46.010
1565.5300, -46.027
1565.5400, -46.029
1565.5500, -45.985
1565.5600, -45.998
1565.5700, -46.003
1565.5800, -45.955
1565.5900, -45.985
1565.6000, -46.010
1565.6100, -45.989
1565.6200, -45.977
1565.6300, -45.965
1565.6400, -45.967
1565.6500, -45.956
1565.6600, -45.967
1565.6700, -45.957
1565.6800, -45.971
1565.6900, -45.944
1565.7000, -45.934
1565.7100, -45.939
1565.7200, -45.928
1565.7300, -45.915
1565.7400, -45.916
1565.7500, -45.903
1565.7600, -45.895
1565.7700, -45.879
1565.7800, -45.868
1565.7900, -45.864
1565.8000, -45.824
1565.8100, -45.837
1565.8200, -45.840
1565.8300, -45.811
1565.8400, -45.815
1565.8500, -45.784
1565.8600, -45.796
1565.8700, -45.785
1565.8800, -45.772
1565.8900, -45.778
1565.9000, -45.738
1565.9100, -45.740
1565.9200, -45.728
1565.9300, -45.721
1565.9400, -45.702
1565.9500, -45.701
1565.9600, -45.714
1565.9700, -45.690
1565.9800, -45.667
1565.9900, -45.654
1566.0000, -45.651
1566.0100, -45.636
1566.0200, -45.630
1566.0300, -45.593
1566.0400, -45.585
1566.0500, -45.571
1566.0600, -45.581
1566.0700, -45.550
1566.0800, -45.528
1566.0900, -45.520
1566.1000, -45.523
1566.1100, -45.496
1566.1200, -45.509
1566.1300, -45.470
1566.1400, -45.460
1566.1500, -45.445
1566.1600, -45.438
1566.1700, -45.423
1566.1800, -45.405
1566.1900, -45.401
1566.2000, -45.389
1566.2100, -45.375
1566.2200, -45.351
1566.2300, -45.345
1566.2400, -45.323
1566.2500, -45.305
1566.2600, -45.284
1566.2700, -45.276
1566.2800, -45.258
1566.2900, -45.244
1566.3000, -45.233
1566.3100, -45.231
1566.3200, -45.213
1566.3300, -45.198
1566.3400, -45.182
1566.3500, -45.178
1566.3600, -45.150
1566.3700, -45.130
1566.3800, -45.120
1566.3900, -45.110
1566.4000, -45.091
1566.4100, -45.067
1566.4200, -45.052
1566.4300, -45.042
1566.4400, -45.037
1566.4500, -44.995
1566.4600, -44.987
1566.4700, -44.976
1566.4800, -44.966
1566.4900, -44.956
1566.5000, -44.934
1566.5100, -44.926
1566.5200, -44.892
1566.5300, -44.887
1566.5400, -44.872
1566.5500, -44.851
1566.5600, -44.826
1566.5700, -44.812
1566.5800, -44.806
1566.5900, -44.781
1566.6000, -44.771
1566.6100, -44.775
1566.6200, -44.740
1566.6300, -44.731
1566.6400, -44.726
1566.6500, -44.692
1566.6600, -44.679
1566.6700, -44.667
1566.6800, -44.645
1566.6900, -44.634
1566.7000, -44.631
1566.7100, -44.598
1566.7200, -44.578
1566.7300, -44.558
1566.7400, -44.564
1566.7500, -44.528
1566.7600, -44.522
1566.7700, -44.507
1566.7800, -44.493
1566.7900, -44.466
1566.8000, -44.471
1566.8100, -44.441
1566.8200, -44.430
1566.8300, -44.415
1566.8400, -44.391
1566.8500, -44.385
1566.8600, -44.363
1566.8700, -44.344
1566.8800, -44.332
1566.8900, -44.326
1566.9000, -44.291
1566.9100, -44.269
1566.9200, -44.263
1566.9300, -44.239
1566.9400, -44.241
1566.9500, -44.216
1566.9600, -44.202
1566.9700, -44.189
1566.9800, -44.162
1566.9900, -44.142
1567.0000, -44.130
1567.0100, -44.107
1567.0200, -44.090
1567.0300, -44.082
1567.0400, -44.063
1567.0500, -44.045
1567.0600, -44.026
1567.0700, -44.017
1567.0800, -44.002
1567.0900, -43.970
1567.1000, -43.963
1567.1100, -43.955
1567.1200, -43.928
1567.1300, -43.916
1567.1400, -43.898
1567.1500, -43.882
1567.1600, -43.866
1567.1700, -43.835
1567.1800, -43.826
1567.1900, -43.815
1567.2000, -43.804
1567.2100, -43.785
1567.2200, -43.764
1567.2300, -43.743
1567.2400, -43.728
1567.2500, -43.712
1567.2600, -43.698
1567.2700, -43.684
1567.2800, -43.662
1567.2900, -43.645
1567.3000, -43.638
1567.3100, -43.625
1567.3200, -43.596
1567.3300, -43.582
1567.3400, -43.551
1567.3500, -43.554
1567.3600, -43.537
1567.3700, -43.517
1567.3800, -43.493
1567.3900, -43.480
1567.4000, -43.466
1567.4100, -43.443
1567.4200, -43.441
1567.4300, -43.406
1567.4400, -43.398
1567.4500, -43.377
1567.4600, -43.363
1567.4700, -43.351
1567.4800, -43.338
1567.4900, -43.312
1567.5000, -43.288
1567.5100, -43.272
1567.5200, -43.258
1567.5300, -43.256
1567.5400, -43.236
1567.5500, -43.224
1567.5600, -43.199
1567.5700, -43.187
1567.5800, -43.168
1567.5900, -43.145
1567.6000, -43.129
1567.6100, -43.117
1567.6200, -43.097
1567.6300, -43.085
1567.6400, -43.065
1567.6500, -43.055
1567.6600, -43.036
1567.6700, -43.025
1567.6800, -43.006
1567.6900, -42.985
1567.7000, -42.982
1567.7100, -42.955
1567.7200, -42.943
1567.7300, -42.926
1567.7400, -42.905
1567.7500, -42.882
1567.7600, -42.872
1567.7700, -42.864
1567.7800, -42.835
1567.7900, -42.817
1567.8000, -42.806
1567.8100, -42.784
1567.8200, -42.773
1567.8300, -42.764
1567.8400, -42.736
1567.8500, -42.723
1567.8600, -42.713
1567.8700, -42.691
1567.8800, -42.677
1567.8900, -42.657
1567.9000, -42.647
1567.9100, -42.629
1567.9200, -42.610
1567.9300, -42.601
1567.9400, -42.576
1567.9500, -42.571
1567.9600, -42.545
1567.9700, -42.530
1567.9800, -42.514
1567.9900, -42.497
1568.0000, -42.482
1568.0100, -42.460
1568.0200, -42.446
1568.0300, -42.435
1568.0400, -42.411
1568.0500, -42.399
1568.0600, -42.382
1568.0700, -42.374
1568.0800, -42.354
1568.0900, -42.333
1568.1000, -42.321
1568.1100, -42.310
1568.1200, -42.290
1568.1300, -42.277
1568.1400, -42.263
1568.1500, -42.247
1568.1600, -42.226
1568.1700, -42.217
1568.1800, -42.203
1568.1900, -42.189
1568.2000, -42.162
1568.2100, -42.161
1568.2200, -42.142
1568.2300, -42.127
1568.2400, -42.121
1568.2500, -42.102
1568.2600, -42.085
1568.2700, -42.070
1568.2800, -42.059
1568.2900, -42.040
1568.3000, -42.017
1568.3100, -42.006
1568.3200, -41.984
1568.3300, -41.980
1568.3400, -41.956
1568.3500, -41.947
1568.3600, -41.930
1568.3700, -41.911
1568.3800, -41.895
1568.3900, -41.882
1568.4000, -41.861
1568.4100, -41.848
1568.4200, -41.838
1568.4300, -41.819
1568.4400, -41.806
1568.4500, -41.786
1568.4600, -41.770
1568.4700, -41.758
1568.4800, -41.734
1568.4900, -41.731
1568.5000, -41.710
1568.5100, -41.701
1568.5200, -41.678
1568.5300, -41.667
1568.5400, -41.650
1568.5500, -41.637
1568.5600, -41.619
1568.5700, -41.605
1568.5800, -41.589
1568.5900, -41.573
1568.6000, -41.559
1568.6100, -41.547
1568.6200, -41.533
1568.6300, -41.516
1568.6400, -41.503
1568.6500, -41.488
1568.6600, -41.472
1568.6700, -41.455
1568.6800, -41.440
1568.6900, -41.425
1568.7000, -41.416
1568.7100, -41.392
1568.7200, -41.386
1568.7300, -41.368
1568.7400, -41.359
1568.7500, -41.335
1568.7600, -41.324
1568.7700, -41.315
1568.7800, -41.304
1568.7900, -41.288
1568.8000, -41.268
1568.8100, -41.260
1568.8200, -41.240
1568.8300, -41.230
1568.8400, -41.213
1568.8500, -41.194
1568.8600, -41.189
1568.8700, -41.170
1568.8800, -41.155
1568.8900, -41.149
1568.9000, -41.130
1568.9100, -41.116
1568.9200, -41.105
1568.9300, -41.091
1568.9400, -41.074
1568.9500, -41.066
1568.9600, -41.049
1568.9700, -41.030
1568.9800, -41.021
1568.9900, -41.006
1569.0000, -40.993
1569.0100, -40.980
1569.0200, -40.968
1569.0300, -40.955
1569.0400, -40.941
1569.0500, -40.929
1569.0600, -40.913
1569.0700, -40.899
1569.0800, -40.883
1569.0900, -40.873
1569.1000, -40.860
1569.1100, -40.845
1569.1200, -40.837
1569.1300, -40.819
1569.1400, -40.809
1569.1500, -40.794
1569.1600, -40.789
1569.1700, -40.773
1569.1800, -40.755
1569.1900, -40.746
1569.2000, -40.731
1569.2100, -40.721
1569.2200, -40.697
1569.2300, -40.698
1569.2400, -40.681
1569.2500, -40.661
1569.2600, -40.654
1569.2700, -40.645
1569.2800, -40.631
1569.2900, -40.616
1569.3000, -40.602
1569.3100, -40.591
1569.3200, -40.577
1569.3300, -40.564
1569.3400, -40.547
1569.3500, -40.539
1569.3600, -40.522
1569.3700, -40.510
1569.3800, -40.501
1569.3900, -40.491
1569.4000, -40.475
1569.4100, -40.461
1569.4200, -40.448
1569.4300, -40.442
1569.4400, -40.433
1569.4500, -40.417
1569.4600, -40.404
1569.4700, -40.395
1569.4800, -40.381
1569.4900, -40.370
1569.5000, -40.352
1569.5100, -40.343
1569.5200, -40.331
1569.5300, -40.316
1569.5400, -40.314
1569.5500, -40.295
1569.5600, -40.286
1569.5700, -40.268
1569.5800, -40.261
1569.5900, -40.250
1569.6000, -40.238
1569.6100, -40.225
1569.6200, -40.212
1569.6300, -40.207
1569.6400, -40.190
1569.6500, -40.186
1569.6600, -40.173
1569.6700, -40.166
1569.6800, -40.149
1569.6900, -40.136
1569.7000, -40.130
1569.7100, -40.116
1569.7200, -40.110
1569.7300, -40.092
1569.7400, -40.079
1569.7500, -40.074
1569.7600, -40.060
1569.7700, -40.048
1569.7800, -40.037
1569.7900, -40.027
1569.8000, -40.017
1569.8100, -40.006
1569.8200, -39.995
1569.8300, -39.987
1569.8400, -39.979
1569.8500, -39.967
1569.8600, -39.956
1569.8700, -39.950
1569.8800, -39.937
1569.8900, -39.926
1569.9000, -39.912
1569.9100, -39.910
1569.9200, -39.897
1569.9300, -39.888
1569.9400, -39.881
1569.9500, -39.865
1569.9600, -39.858
1569.9700, -39.845
1569.9800, -39.837
1569.9900, -39.824
1570.0000, -39.809
1570.0100, -39.809
1570.0200, -39.797
1570.0300, -39.785
1570.0400, -39.774
1570.0500, -39.765
1570.0600, -39.758
1570.0700, -39.743
1570.0800, -39.737
1570.0900, -39.727
1570.1000, -39.714
1570.1100, -39.707
1570.1200, -39.696
1570.1300, -39.689
1570.1400, -39.682
1570.1500, -39.675
1570.1600, -39.664
1570.1700, -39.658
1570.1800, -39.643
1570.1900, -39.637
1570.2000, -39.631
1570.2100, -39.613
1570.2200, -39.610
1570.2300, -39.600
1570.2400, -39.594
1570.2500, -39.586
1570.2600, -39.574
1570.2700, -39.567
1570.2800, -39.556
1570.2900, -39.545
1570.3000, -39.540
1570.3100, -39.527
1570.3200, -39.521
1570.3300, -39.517
1570.3400, -39.509
1570.3500, -39.500
1570.3600, -39.492
1570.3700, -39.483
1570.3800, -39.476
1570.3900, -39.468
1570.4000, -39.461
1570.4100, -39.451
1570.4200, -39.441
1570.4300, -39.438
1570.4400, -39.427
1570.4500, -39.423
1570.4600, -39.412
1570.4700, -39.406
1570.4800, -39.398
1570.4900, -39.388
1570.5000, -39.382
1570.5100, -39.377
1570.5200, -39.370
1570.5300, -39.363
1570.5400, -39.354
1570.5500, -39.343
1570.5600, -39.342
1570.5700, -39.331
1570.5800, -39.322
1570.5900, -39.316
1570.6000, -39.312
1570.6100, -39.308
1570.6200, -39.297
1570.6300, -39.295
1570.6400, -39.288
1570.6500, -39.281
1570.6600, -39.272
1570.6700, -39.270
1570.6800, -39.264
1570.6900, -39.256
1570.7000, -39.249
1570.7100, -39.241
1570.7200, -39.234
1570.7300, -39.229
1570.7400, -39.227
1570.7500, -39.219
1570.7600, -39.211
1570.7700, -39.203
1570.7800, -39.199
1570.7900, -39.195
1570.8000, -39.184
1570.8100, -39.181
1570.8200, -39.176
1570.8300, -39.166
1570.8400, -39.167
1570.8500, -39.160
1570.8600, -39.156
1570.8700, -39.148
1570.8800, -39.144
1570.8900, -39.136
1570.9000, -39.131
1570.9100, -39.129
1570.9200, -39.123
1570.9300, -39.117
1570.9400, -39.113
1570.9500, -39.105
1570.9600, -39.099
1570.9700, -39.095
1570.9800, -39.090
1570.9900, -39.088
1571.0000, -39.084
1571.0100, -39.073
1571.0200, -39.074
1571.0300, -39.068
1571.0400, -39.062
1571.0500, -39.059
1571.0600, -39.053
1571.0700, -39.048
1571.0800, -39.046
1571.0900, -39.037
1571.1000, -39.037
1571.1100, -39.035
1571.1200, -39.028
1571.1300, -39.026
1571.1400, -39.022
1571.1500, -39.018
1571.1600, -39.012
1571.1700, -39.009
1571.1800, -39.003
1571.1900, -39.007
1571.2000, -38.999
1571.2100, -38.994
1571.2200, -38.990
1571.2300, -38.987
1571.2400, -38.984
1571.2500, -38.981
1571.2600, -38.981
1571.2700, -38.972
1571.2800, -38.971
1571.2900, -38.966
1571.3000, -38.964
1571.3100, -38.960
1571.3200, -38.962
1571.3300, -38.958
1571.3400, -38.955
1571.3500, -38.950
1571.3600, -38.946
1571.3700, -38.946
1571.3800, -38.943
1571.3900, -38.937
1571.4000, -38.935
1571.4100, -38.936
1571.4200, -38.929
1571.4300, -38.928
1571.4400, -38.926
1571.4500, -38.923
1571.4600, -38.920
1571.4700, -38.920
1571.4800, -38.914
1571.4900, -38.911
1571.5000, -38.914
1571.5100, -38.911
1571.5200, -38.910
1571.5300, -38.905
1571.5400, -38.905
1571.5500, -38.904
1571.5600, -38.899
1571.5700, -38.902
1571.5800, -38.900
1571.5900, -38.895
1571.6000, -38.895
1571.6100, -38.891
1571.6200, -38.890
1571.6300, -38.887
1571.6400, -38.889
1571.6500, -38.884
1571.6600, -38.884
1571.6700, -38.882
1571.6800, -38.886
1571.6900, -38.883
1571.7000, -38.881
1571.7100, -38.882
1571.7200, -38.882
1571.7300, -38.880
1571.7400, -38.880
1571.7500, -38.879
1571.7600, -38.877
1571.7700, -38.874
1571.7800, -38.876
1571.7900, -38.876
1571.8000, -38.877
1571.8100, -38.875
1571.8200, -38.877
1571.8300, -38.875
1571.8400, -38.874
1571.8500, -38.875
1571.8600, -38.876
1571.8700, -38.876
1571.8800, -38.875
1571.8900, -38.872
1571.9000, -38.876
1571.9100, -38.877
1571.9200, -38.879
1571.9300, -38.876
1571.9400, -38.879
1571.9500, -38.879
1571.9600, -38.876
1571.9700, -38.876
1571.9800, -38.878
1571.9900, -38.879
1572.0000, -38.881
1572.0100, -38.883
1572.0200, -38.884
1572.0300, -38.886
1572.0400, -38.883
1572.0500, -38.882
1572.0600, -38.886
1572.0700, -38.886
1572.0800, -38.887
1572.0900, -38.889
1572.1000, -38.890
1572.1100, -38.890
1572.1200, -38.891
1572.1300, -38.894
1572.1400, -38.896
1572.1500, -38.898
1572.1600, -38.898
1572.1700, -38.899
1572.1800, -38.904
1572.1900, -38.904
1572.2000, -38.907
1572.2100, -38.906
1572.2200, -38.909
1572.2300, -38.912
1572.2400, -38.915
1572.2500, -38.914
1572.2600, -38.919
1572.2700, -38.919
1572.2800, -38.920
1572.2900, -38.926
1572.3000, -38.925
1572.3100, -38.926
1572.3200, -38.931
1572.3300, -38.935
1572.3400, -38.933
1572.3500, -38.942
1572.3600, -38.942
1572.3700, -38.947
1572.3800, -38.948
1572.3900, -38.950
1572.4000, -38.954
1572.4100, -38.955
1572.4200, -38.961
1572.4300, -38.964
1572.4400, -38.965
1572.4500, -38.971
1572.4600, -38.972
1572.4700, -38.975
1572.4800, -38.981
1572.4900, -38.983
1572.5000, -38.986
1572.5100, -38.989
1572.5200, -38.996
1572.5300, -38.997
1572.5400, -39.002
1572.5500, -39.003
1572.5600, -39.006
1572.5700, -39.010
1572.5800, -39.015
1572.5900, -39.021
1572.6000, -39.017
1572.6100, -39.027
1572.6200, -39.032
1572.6300, -39.034
1572.6400, -39.039
1572.6500, -39.043
1572.6600, -39.050
1572.6700, -39.053
1572.6800, -39.058
1572.6900, -39.064
1572.7000, -39.066
1572.7100, -39.069
1572.7200, -39.073
1572.7300, -39.082
1572.7400, -39.087
1572.7500, -39.088
1572.7600, -39.095
1572.7700, -39.099
1572.7800, -39.102
1572.7900, -39.111
1572.8000, -39.115
1572.8100, -39.118
1572.8200, -39.126
1572.8300, -39.132
1572.8400, -39.134
1572.8500, -39.138
1572.8600, -39.147
1572.8700, -39.151
1572.8800, -39.155
1572.8900, -39.162
1572.9000, -39.170
1572.9100, -39.174
1572.9200, -39.182
1572.9300, -39.181
1572.9400, -39.193
1572.9500, -39.196
1572.9600, -39.202
1572.9700, -39.208
1572.9800, -39.216
1572.9900, -39.220
1573.0000, -39.226
1573.0100, -39.231
1573.0200, -39.240
1573.0300, -39.241
1573.0400, -39.253
1573.0500, -39.256
1573.0600, -39.266
1573.0700, -39.272
1573.0800, -39.277
1573.0900, -39.282
1573.1000, -39.293
1573.1100, -39.297
1573.1200, -39.306
1573.1300, -39.315
1573.1400, -39.315
1573.1500, -39.325
1573.1600, -39.333
1573.1700, -39.335
1573.1800, -39.348
1573.1900, -39.358
1573.2000, -39.361
1573.2100, -39.368
1573.2200, -39.377
1573.2300, -39.382
1573.2400, -39.391
1573.2500, -39.398
1573.2600, -39.409
1573.2700, -39.413
1573.2800, -39.417
1573.2900, -39.431
1573.3000, -39.436
1573.3100, -39.445
1573.3200, -39.449
1573.3300, -39.461
1573.3400, -39.466
1573.3500, -39.474
1573.3600, -39.487
1573.3700, -39.493
1573.3800, -39.498
1573.3900, -39.509
1573.4000, -39.514
1573.4100, -39.522
1573.4200, -39.534
1573.4300, -39.544
1573.4400, -39.547
1573.4500, -39.560
1573.4600, -39.567
1573.4700, -39.574
1573.4800, -39.580
1573.4900, -39.591
1573.5000, -39.599
1573.5100, -39.603
1573.5200, -39.620
1573.5300, -39.628
1573.5400, -39.635
1573.5500, -39.643
1573.5600, -39.651
1573.5700, -39.663
1573.5800, -39.670
1573.5900, -39.675
1573.6000, -39.690
1573.6100, -39.697
1573.6200, -39.706
1573.6300, -39.713
1573.6400, -39.719
1573.6500, -39.733
1573.6600, -39.744
1573.6700, -39.748
1573.6800, -39.761
1573.6900, -39.767
1573.7000, -39.779
1573.7100, -39.789
1573.7200, -39.795
1573.7300, -39.806
1573.7400, -39.815
1573.7500, -39.828
1573.7600, -39.837
1573.7700, -39.845
1573.7800, -39.856
1573.7900, -39.865
1573.8000, -39.878
1573.8100, -39.885
1573.8200, -39.901
1573.8300, -39.908
1573.8400, -39.919
1573.8500, -39.930
1573.8600, -39.935
1573.8700, -39.949
1573.8800, -39.956
1573.8900, -39.968
1573.9000, -39.976
1573.9100, -39.991
1573.9200, -40.000
1573.9300, -40.008
1573.9400, -40.022
1573.9500, -40.029
1573.9600, -40.045
1573.9700, -40.052
1573.9800, -40.062
1573.9900, -40.079
1574.0000, -40.087
1574.0100, -40.099
1574.0200, -40.108
1574.0300, -40.121
1574.0400, -40.130
1574.0500, -40.141
1574.0600, -40.154
1574.0700, -40.165
1574.0800, -40.180
1574.0900, -40.189
1574.1000, -40.197
1574.1100, -40.211
1574.1200, -40.221
1574.1300, -40.237
1574.1400, -40.239
1574.1500, -40.259
1574.1600, -40.266
1574.1700, -40.278
1574.1800, -40.293
1574.1900, -40.299
1574.2000, -40.314
1574.2100, -40.320
1574.2200, -40.333
1574.2300, -40.350
1574.2400, -40.364
1574.2500, -40.370
1574.2600, -40.379
1574.2700, -40.397
1574.2800, -40.403
1574.2900, -40.412
1574.3000, -40.427
1574.3100, -40.438
1574.3200, -40.458
1574.3300, -40.462
1574.3400, -40.478
1574.3500, -40.485
1574.3600, -40.505
1574.3700, -40.514
1574.3800, -40.519
1574.3900, -40.539
1574.4000, -40.547
1574.4100, -40.568
1574.4200, -40.570
1574.4300, -40.589
1574.4400, -40.604
1574.4500, -40.609
1574.4600, -40.629
1574.4700, -40.631
1574.4800, -40.651
1574.4900, -40.662
1574.5000, -40.680
1574.5100, -40.686
1574.5200, -40.700
1574.5300, -40.713
1574.5400, -40.718
1574.5500, -40.742
1574.5600, -40.750
1574.5700, -40.766
1574.5800, -40.781
1574.5900, -40.796
1574.6000, -40.812
1574.6100, -40.822
1574.6200, -40.839
1574.6300, -40.845
1574.6400, -40.863
1574.6500, -40.871
1574.6600, -40.887
1574.6700, -40.904
1574.6800, -40.911
1574.6900, -40.928
1574.7000, -40.939
1574.7100, -40.957
1574.7200, -40.967
1574.7300, -40.985
1574.7400, -40.994
1574.7500, -41.010
1574.7600, -41.023
1574.7700, -41.034
1574.7800, -41.045
1574.7900, -41.060
1574.8000, -41.080
1574.8100, -41.093
1574.8200, -41.108
1574.8300, -41.117
1574.8400, -41.130
1574.8500, -41.147
1574.8600, -41.161
1574.8700, -41.173
1574.8800, -41.191
1574.8900, -41.205
1574.9000, -41.218
1574.9100, -41.231
1574.9200, -41.252
1574.9300, -41.259
1574.9400, -41.272
1574.9500, -41.294
1574.9600, -41.303
1574.9700, -41.313
1574.9800, -41.329
1574.9900, -41.349
1575.0000, -41.361
1575.0100, -41.372
1575.0200, -41.387
1575.0300, -41.402
1575.0400, -41.423
1575.0500, -41.427
1575.0600, -41.444
1575.0700, -41.456
1575.0800, -41.476
1575.0900, -41.487
1575.1000, -41.505
1575.1100, -41.524
1575.1200, -41.529
1575.1300, -41.552
1575.1400, -41.555
1575.1500, -41.589
1575.1600, -41.589
1575.1700, -41.611
1575.1800, -41.621
1575.1900, -41.637
1575.2000, -41.659
1575.2100, -41.658
1575.2200, -41.699
1575.2300, -41.688
1575.2400, -41.711
1575.2500, -41.727
1575.2600, -41.743
1575.2700, -41.764
1575.2800, -41.767
1575.2900, -41.796
1575.3000, -41.802
1575.3100, -41.826
1575.3200, -41.834
1575.3300, -41.854
1575.3400, -41.875
1575.3500, -41.882
1575.3600, -41.901
1575.3700, -41.908
1575.3800, -41.940
1575.3900, -41.949
1575.4000, -41.963
1575.4100, -41.984
1575.4200, -41.990
1575.4300, -42.016
1575.4400, -42.025
1575.4500, -42.034
1575.4600, -42.059
1575.4700, -42.069
1575.4800, -42.093
1575.4900, -42.105
1575.5000, -42.124
1575.5100, -42.142
1575.5200, -42.154
1575.5300, -42.165
1575.5400, -42.185
1575.5500, -42.206
1575.5600, -42.214
1575.5700, -42.232
1575.5800, -42.248
1575.5900, -42.271
1575.6000, -42.284
1575.6100, -42.296
1575.6200, -42.314
1575.6300, -42.323
1575.6400, -42.349
1575.6500, -42.367
1575.6600, -42.378
1575.6700, -42.391
1575.6800, -42.413
1575.6900, -42.428
1575.7000, -42.444
1575.7100, -42.462
1575.7200, -42.476
1575.7300, -42.491
1575.7400, -42.503
1575.7500, -42.523
1575.7600, -42.553
1575.7700, -42.554
1575.7800, -42.577
1575.7900, -42.586
1575.8000, -42.608
1575.8100, -42.618
1575.8200, -42.638
1575.8300, -42.657
1575.8400, -42.668
1575.8500, -42.694
1575.8600, -42.697
1575.8700, -42.714
1575.8800, -42.734
1575.8900, -42.748
1575.9000, -42.772
1575.9100, -42.786
1575.9200, -42.802
1575.9300, -42.808
1575.9400, -42.833
1575.9500, -42.856
1575.9600, -42.856
1575.9700, -42.890
1575.9800, -42.898
1575.9900, -42.931
1576.0000, -42.931
1576.0100, -42.954
1576.0200, -42.975
1576.0300, -42.984
1576.0400, -43.000
1576.0500, -43.008
1576.0600, -43.038
1576.0700, -43.051
1576.0800, -43.074
1576.0900, -43.094
1576.1000, -43.103
1576.1100, -43.130
1576.1200, -43.141
1576.1300, -43.159
1576.1400, -43.160
1576.1500, -43.193
1576.1600, -43.210
1576.1700, -43.232
1576.1800, -43.248
1576.1900, -43.259
1576.2000, -43.279
1576.2100, -43.291
1576.2200, -43.316
1576.2300, -43.323
1576.2400, -43.335
1576.2500, -43.352
1576.2600, -43.380
1576.2700, -43.403
1576.2800, -43.414
1576.2900, -43.429
1576.3000, -43.450
1576.3100, -43.468
1576.3200, -43.483
1576.3300, -43.497
1576.3400, -43.511
1576.3500, -43.537
1576.3600, -43.551
1576.3700, -43.566
1576.3800, -43.599
1576.3900, -43.603
1576.4000, -43.623
1576.4100, -43.638
1576.4200, -43.656
1576.4300, -43.684
1576.4400, -43.696
1576.4500, -43.708
1576.4600, -43.730
1576.4700, -43.750
1576.4800, -43.766
1576.4900, -43.783
1576.5000, -43.794
1576.5100, -43.821
1576.5200, -43.841
1576.5300, -43.846
1576.5400, -43.869
1576.5500, -43.886
1576.5600, -43.902
1576.5700, -43.925
1576.5800, -43.941
1576.5900, -43.963
1576.6000, -43.969
1576.6100, -43.986
1576.6200, -44.000
1576.6300, -44.022
1576.6400, -44.047
1576.6500, -44.057
1576.6600, -44.074
1576.6700, -44.081
1576.6800, -44.115
1576.6900, -44.123
1576.7000, -44.145
1576.7100, -44.161
1576.7200, -44.179
1576.7300, -44.202
1576.7400, -44.208
1576.7500, -44.238
1576.7600, -44.233
1576.7700, -44.267
1576.7800, -44.286
1576.7900, -44.296
1576.8000, -44.322
1576.8100, -44.344
1576.8200, -44.365
1576.8300, -44.377
1576.8400, -44.388
1576.8500, -44.410
1576.8600, -44.431
1576.8700, -44.452
1576.8800, -44.462
1576.8900, -44.486
1576.9000, -44.511
1576.9100, -44.522
1576.9200, -44.535
1576.9300, -44.558
1576.9400, -44.576
1576.9500, -44.593
1576.9600, -44.614
1576.9700, -44.633
1576.9800, -44.663
1576.9900, -44.657
1577.0000, -44.676
1577.0100, -44.706
1577.0200, -44.708
1577.0300, -44.731
1577.0400, -44.753
1577.0500, -44.779
1577.0600, -44.794
1577.0700, -44.810
1577.0800, -44.824
1577.0900, -44.848
1577.1000, -44.850
1577.1100, -44.882
1577.1200, -44.895
1577.1300, -44.906
1577.1400, -44.938
1577.1500, -44.941
1577.1600, -44.976
1577.1700, -44.995
1577.1800, -45.009
1577.1900, -45.024
1577.2000, -45.032
1577.2100, -45.051
1577.2200, -45.061
1577.2300, -45.088
1577.2400, -45.120
1577.2500, -45.132
1577.2600, -45.148
1577.2700, -45.169
1577.2800, -45.180
1577.2900, -45.205
1577.3000, -45.220
1577.3100, -45.227
1577.3200, -45.256
1577.3300, -45.264
1577.3400, -45.302
1577.3500, -45.299
1577.3600, -45.311
1577.3700, -45.335
1577.3800, -45.347
1577.3900, -45.373
1577.4000, -45.394
1577.4100, -45.395
1577.4200, -45.427
1577.4300, -45.448
1577.4400, -45.461
1577.4500, -45.472
1577.4600, -45.494
1577.4700, -45.507
1577.4800, -45.521
1577.4900, -45.546
1577.5000, -45.561
1577.5100, -45.583
1577.5200, -45.594
1577.5300, -45.611
1577.5400, -45.657
1577.5500, -45.644
1577.5600, -45.677
1577.5700, -45.667
1577.5800, -45.720
1577.5900, -45.735
1577.6000, -45.739
1577.6100, -45.771
1577.6200, -45.765
1577.6300, -45.802
1577.6400, -45.807
1577.6500, -45.832
1577.6600, -45.835
1577.6700, -45.858
1577.6800, -45.865
1577.6900, -45.892
1577.7000, -45.910
1577.7100, -45.940
1577.7200, -45.951
1577.7300, -45.974
1577.7400, -46.007
1577.7500, -45.997
1577.7600, -46.013
1577.7700, -46.032
1577.7800, -46.048
1577.7900, -46.070
1577.8000, -46.103
1577.8100, -46.096
1577.8200, -46.115
1577.8300, -46.120
1577.8400, -46.155
1577.8500, -46.159
1577.8600, -46.194
1577.8700, -46.208
1577.8800, -46.212
1577.8900, -46.237
1577.9000, -46.257
1577.9100, -46.262
1577.9200, -46.290
1577.9300, -46.301
1577.9400, -46.334
1577.9500, -46.344
1577.9600, -46.354
1577.9700, -46.390
1577.9800, -46.395
1577.9900, -46.416
1578.0000, -46.427
1578.0100, -46.441
1578.0200, -46.451
1578.0300, -46.467
1578.0400, -46.497
1578.0500, -46.508
1578.0600, -46.529
1578.0700, -46.534
1578.0800, -46.559
1578.0900, -46.573
1578.1000, -46.568
1578.1100, -46.593
1578.1200, -46.630
1578.1300, -46.636
1578.1400, -46.647
1578.1500, -46.668
1578.1600, -46.654
1578.1700, -46.688
1578.1800, -46.712
1578.1900, -46.749
1578.2000, -46.746
1578.2100, -46.758
1578.2200, -46.778
1578.2300, -46.771
1578.2400, -46.798
1578.2500, -46.827
1578.2600, -46.845
1578.2700, -46.863
1578.2800, -46.890
1578.2900, -46.866
1578.3000, -46.893
1578.3100, -46.930
1578.3200, -46.935
1578.3300, -46.970
1578.3400, -46.988
1578.3500, -46.986
1578.3600, -46.998
1578.3700, -47.007
1578.3800, -47.019
1578.3900, -47.051
1578.4000, -47.057
1578.4100, -47.074
1578.4200, -47.086
1578.4300, -47.101
1578.4400, -47.107
1578.4500, -47.124
1578.4600, -47.138
1578.4700, -47.160
1578.4800, -47.176
1578.4900, -47.192
1578.5000, -47.210
1578.5100, -47.209
1578.5200, -47.243
1578.5300, -47.267
1578.5400, -47.276
1578.5500, -47.271
1578.5600, -47.281
1578.5700, -47.330
1578.5800, -47.320
1578.5900, -47.333
1578.6000, -47.358
1578.6100, -47.355
1578.6200, -47.377
1578.6300, -47.395
1578.6400, -47.418
1578.6500, -47.426
1578.6600, -47.433
1578.6700, -47.459
1578.6800, -47.457
1578.6900, -47.478
1578.7000, -47.465
1578.7100, -47.507
1578.7200, -47.488
1578.7300, -47.519
1578.7400, -47.541
1578.7500, -47.554
1578.7600, -47.530
1578.7700, -47.576
1578.7800, -47.603
1578.7900, -47.599
1578.8000, -47.609
1578.8100, -47.636
1578.8200, -47.641
1578.8300, -47.645
1578.8400, -47.655
1578.8500, -47.673
1578.8600, -47.696
1578.8700, -47.704
1578.8800, -47.711
1578.8900, -47.707
1578.9000, -47.721
1578.9100, -47.738
1578.9200, -47.756
1578.9300, -47.761
1578.9400, -47.792
1578.9500, -47.777
1578.9600, -47.813
1578.9700, -47.816
1578.9800, -47.811
1578.9900, -47.829
1579.0000, -47.827
1579.0100, -47.848
1579.0200, -47.836
1579.0300, -47.864
1579.0400, -47.889
1579.0500, -47.875
1579.0600, -47.904
1579.0700, -47.914
1579.0800, -47.922
1579.0900, -47.905
1579.1000, -47.945
1579.1100, -47.932
1579.1200, -47.928
1579.1300, -47.963
1579.1400, -47.951
1579.1500, -47.974
1579.1600, -48.011
1579.1700, -48.003
1579.1800, -47.997
1579.1900, -47.975
1579.2000, -48.014
1579.2100, -48.006
1579.2200, -48.027
1579.2300, -48.025
1579.2400, -48.032
1579.2500, -48.044
1579.2600, -48.058
1579.2700, -48.058
1579.2800, -48.074
1579.2900, -48.043
1579.3000, -48.055
1579.3100, -48.068
1579.3200, -48.058
1579.3300, -48.050
1579.3400, -48.085
1579.3500, -48.106
1579.3600, -48.099
1579.3700, -48.082
1579.3800, -48.090
1579.3900, -48.101
1579.4000, -48.095
1579.4100, -48.080
1579.4200, -48.115
1579.4300, -48.111
1579.4400, -48.068
1579.4500, -48.075
1579.4600, -48.099
1579.4700, -48.079
1579.4800, -48.096
1579.4900, -48.077
1579.5000, -48.101
1579.5100, -48.102
1579.5200, -48.085
1579.5300, -48.086
1579.5400, -48.085
1579.5500, -48.083
1579.5600, -48.055
1579.5700, -48.086
1579.5800, -48.069
1579.5900, -48.047
1579.6000, -48.019
1579.6100, -48.037
1579.6200, -48.018
1579.6300, -48.035
1579.6400, -48.012
1579.6500, -48.017
1579.6600, -48.010
1579.6700, -47.987
1579.6800, -47.976
1579.6900, -47.974
1579.7000, -47.953
1579.7100, -47.953
1579.7200, -47.978
1579.7300, -47.918
1579.7400, -47.906
1579.7500, -47.879
1579.7600, -47.874
1579.7700, -47.873
1579.7800, -47.861
1579.7900, -47.825
1579.8000, -47.803
1579.8100, -47.792
1579.8200, -47.756
1579.8300, -47.756
1579.8400, -47.727
1579.8500, -47.663
1579.8600, -47.675
1579.8700, -47.628
1579.8800, -47.612
1579.8900, -47.596
1579.9000, -47.538
1579.9100, -47.520
1579.9200, -47.498
1579.9300, -47.476
1579.9400, -47.437
1579.9500, -47.367
1579.9600, -47.353
1579.9700, -47.301
1579.9800, -47.266
1579.9900, -47.231
1580.0000, -47.179
1580.0100, -47.146
1580.0200, -47.062
1580.0300, -47.056
1580.0400, -46.985
1580.0500, -46.930
1580.0600, -46.887
1580.0700, -46.781
1580.0800, -46.780
1580.0900, -46.686
1580.1000, -46.654
1580.1100, -46.534
1580.1200, -46.508
1580.1300, -46.423
1580.1400, -46.342
1580.1500, -46.290
1580.1600, -46.152
1580.1700, -46.113
1580.1800, -46.008
1580.1900, -45.914
1580.2000, -45.830
1580.2100, -45.702
1580.2200, -45.652
1580.2300, -45.521
1580.2400, -45.404
1580.2500, -45.326
1580.2600, -45.172
1580.2700, -45.096
1580.2800, -44.925
1580.2900, -44.852
1580.3000, -44.694
1580.3100, -44.579
1580.3200, -44.455
1580.3300, -44.307
1580.3400, -44.222
1580.3500, -43.999
1580.3600, -43.928
1580.3700, -43.793
1580.3800, -43.645
1580.3900, -43.523
1580.4000, -43.425
1580.4100, -43.326
1580.4200, -43.231
1580.4300, -43.151
1580.4400, -43.079
1580.4500, -43.041
1580.4600, -43.029
1580.4700, -43.037
1580.4800, -43.093
1580.4900, -43.152
1580.5000, -43.265
1580.5100, -43.400
1580.5200, -43.625
1580.5300, -43.857
1580.5400, -44.090
1580.5500, -44.426
1580.5600, -44.764
1580.5700, -45.164
1580.5800, -45.561
1580.5900, -46.021
1580.6000, -46.402
1580.6100, -46.894
1580.6200, -47.506
1580.6300, -47.748
1580.6400, -48.265
1580.6500, -48.777
1580.6600, -49.212
1580.6700, -49.772
1580.6800, -50.189
1580.6900, -50.742
1580.7000, -51.176
1580.7100, -51.685
1580.7200, -52.311
1580.7300, -52.653
1580.7400, -53.162
1580.7500, -53.630
1580.7600, -54.235
1580.7700, -54.568
1580.7800, -55.121
1580.7900, -55.540
1580.8000, -55.764
1580.8100, -56.273
1580.8200, -56.520
1580.8300, -56.953
1580.8400, -57.257
1580.8500, -57.886
1580.8600, -58.074
1580.8700, -58.283
1580.8800, -58.666
1580.8900, -59.251
1580.9000, -59.039
1580.9100, -59.464
1580.9200, -59.650
1580.9300, -59.860
1580.9400, -60.177
1580.9500, -60.326
1580.9600, -60.427
1580.9700, -60.645
1580.9800, -60.455
1580.9900, -60.731
1581.0000, -60.111
1581.0100, -60.608
1581.0200, -60.661
1581.0300, -60.730
1581.0400, -60.896
1581.0500, -60.875
1581.0600, -60.491
1581.0700, -60.951
1581.0800, -60.433
1581.0900, -60.942
1581.1000, -60.981
1581.1100, -60.992
1581.1200, -60.819
1581.1300, -60.810
1581.1400, -60.822
1581.1500, -60.708
1581.1600, -60.905
1581.1700, -60.890
1581.1800, -60.749
1581.1900, -60.745
1581.2000, -60.225
1581.2100, -60.387
1581.2200, -60.283
1581.2300, -60.242
1581.2400, -60.537
1581.2500, -60.058
1581.2600, -60.169
1581.2700, -60.126
1581.2800, -60.219
1581.2900, -60.064
1581.3000, -59.833
1581.3100, -60.003
1581.3200, -59.403
1581.3300, -59.968
1581.3400, -59.644
1581.3500, -59.958
1581.3600, -59.830
1581.3700, -59.410
1581.3800, -59.904
1581.3900, -59.688
1581.4000, -59.956
1581.4100, -59.642
1581.4200, -59.647
1581.4300, -59.696
1581.4400, -59.608
1581.4500, -59.421
1581.4600, -59.320
1581.4700, -59.337
1581.4800, -59.561
1581.4900, -59.576
1581.5000, -59.347
1581.5100, -59.236
1581.5200, -59.135
1581.5300, -59.339
1581.5400, -59.219
1581.5500, -59.331
1581.5600, -59.552
1581.5700, -59.467
1581.5800, -59.340
1581.5900, -59.163
1581.6000, -59.274
1581.6100, -59.003
1581.6200, -59.209
1581.6300, -59.411
1581.6400, -59.362
1581.6500, -58.950
1581.6600, -59.187
1581.6700, -58.807
1581.6800, -58.958
1581.6900, -58.968
1581.7000, -59.140
1581.7100, -59.139
1581.7200, -59.075
1581.7300, -58.878
1581.7400, -58.838
1581.7500, -59.149
1581.7600, -58.988
1581.7700, -58.943
1581.7800, -58.718
1581.7900, -58.979
1581.8000, -58.903
1581.8100, -59.044
1581.8200, -59.061
1581.8300, -59.013
1581.8400, -59.344
1581.8500, -58.972
1581.8600, -59.022
1581.8700, -58.828
1581.8800, -59.252
1581.8900, -58.700
1581.9000, -59.110
1581.9100, -59.216
1581.9200, -58.884
1581.9300, -58.883
1581.9400, -59.290
1581.9500, -59.074
1581.9600, -58.912
1581.9700, -59.139
1581.9800, -59.080
1581.9900, -58.874
1582.0000, -58.915
1582.0100, -58.946
1582.0200, -58.719
1582.0300, -59.332
1582.0400, -58.916
1582.0500, -59.046
1582.0600, -59.143
1582.0700, -59.003
1582.0800, -58.873
1582.0900, -59.214
1582.1000, -59.005
1582.1100, -58.964
1582.1200, -59.049
1582.1300, -58.994
1582.1400, -58.971
1582.1500, -58.817
1582.1600, -58.847
1582.1700, -59.163
1582.1800, -59.191
1582.1900, -59.080
1582.2000, -58.839
1582.2100, -58.838
1582.2200, -59.102
1582.2300, -59.079
1582.2400, -59.139
1582.2500, -59.062
1582.2600, -59.004
1582.2700, -59.273
1582.2800, -59.105
1582.2900, -59.219
1582.3000, -59.428
1582.3100, -59.297
1582.3200, -59.202
1582.3300, -59.044
1582.3400, -59.150
1582.3500, -59.147
1582.3600, -59.026
1582.3700, -59.202
1582.3800, -59.329
1582.3900, -59.363
1582.4000, -58.940
1582.4100, -59.137
1582.4200, -59.520
1582.4300, -59.534
1582.4400, -59.189
1582.4500, -59.127
1582.4600, -59.255
1582.4700, -59.228
1582.4800, -59.354
1582.4900, -59.138
1582.5000, -59.288
1582.5100, -59.430
1582.5200, -59.165
1582.5300, -59.178
1582.5400, -59.390
1582.5500, -59.381
1582.5600, -59.342
1582.5700, -59.518
1582.5800, -59.446
1582.5900, -59.182
1582.6000, -59.404
1582.6100, -59.032
1582.6200, -59.403
1582.6300, -59.466
1582.6400, -59.360
1582.6500, -59.357
1582.6600, -59.338
1582.6700, -59.158
1582.6800, -59.612
1582.6900, -59.373
1582.7000, -59.435
1582.7100, -59.393
1582.7200, -59.463
1582.7300, -59.449
1582.7400, -59.222
1582.7500, -59.485
1582.7600, -59.743
1582.7700, -59.535
1582.7800, -59.649
1582.7900, -59.483
1582.8000, -59.502
1582.8100, -59.523
1582.8200, -59.774
1582.8300, -59.786
1582.8400, -59.976
1582.8500, -59.977
1582.8600, -59.483
1582.8700, -59.938
1582.8800, -59.604
1582.8900, -59.871
1582.9000, -59.538
1582.9100, -59.506
1582.9200, -59.476
1582.9300, -60.096
1582.9400, -59.608
1582.9500, -59.699
1582.9600, -59.736
1582.9700, -59.465
1582.9800, -60.111
1582.9900, -59.713
1583.0000, -59.732
1583.0100, -59.766
1583.0200, -59.803
1583.0300, -59.827
1583.0400, -59.907
1583.0500, -59.790
1583.0600, -59.830
1583.0700, -59.779
1583.0800, -60.309
1583.0900, -59.831
1583.1000, -59.971
1583.1100, -60.140
1583.1200, -60.077
1583.1300, -59.884
1583.1400, -59.965
1583.1500, -59.790
1583.1600, -60.158
1583.1700, -59.876
1583.1800, -60.071
1583.1900, -60.009
1583.2000, -59.993
1583.2100, -59.827
1583.2200, -60.017
1583.2300, -60.547
1583.2400, -59.894
1583.2500, -59.756
1583.2600, -60.058
1583.2700, -60.163
1583.2800, -60.324
1583.2900, -60.258
1583.3000, -60.353
1583.3100, -60.246
1583.3200, -60.177
1583.3300, -60.210
1583.3400, -60.152
1583.3500, -60.320
1583.3600, -60.192
1583.3700, -60.097
1583.3800, -60.215
1583.3900, -60.442
1583.4000, -60.264
1583.4100, -60.156
1583.4200, -60.259
1583.4300, -60.106
1583.4400, -60.476
1583.4500, -60.254
1583.4600, -60.370
1583.4700, -60.190
1583.4800, -60.367
1583.4900, -60.613
1583.5000, -60.107
1583.5100, -60.063
1583.5200, -60.079
1583.5300, -60.604
1583.5400, -60.781
1583.5500, -60.629
1583.5600, -60.631
1583.5700, -60.597
1583.5800, -60.809
1583.5900, -60.736
1583.6000, -60.249
1583.6100, -60.291
1583.6200, -60.496
1583.6300, -60.328
1583.6400, -60.122
1583.6500, -60.308
1583.6600, -60.451
1583.6700, -60.829
1583.6800, -60.626
1583.6900, -60.448
1583.7000, -60.476
1583.7100, -60.647
1583.7200, -60.657
1583.7300, -60.574
1583.7400, -60.491
1583.7500, -60.862
1583.7600, -60.639
1583.7700, -60.323
1583.7800, -60.603
1583.7900, -60.808
1583.8000, -60.484
1583.8100, -60.800
1583.8200, -60.564
1583.8300, -60.732
1583.8400, -60.654
1583.8500, -60.838
1583.8600, -60.641
1583.8700, -60.587
1583.8800, -61.199
1583.8900, -61.148
1583.9000, -60.361
1583.9100, -60.699
1583.9200, -60.712
1583.9300, -60.611
1583.9400, -60.741
1583.9500, -60.716
1583.9600, -60.660
1583.9700, -60.633
1583.9800, -60.567
1583.9900, -60.518
1584.0000, -60.883
1584.0100, -60.638
1584.0200, -60.582
1584.0300, -60.592
1584.0400, -60.457
1584.0500, -60.585
1584.0600, -60.779
1584.0700, -60.673
1584.0800, -60.812
1584.0900, -60.908
1584.1000, -60.624
1584.1100, -60.677
1584.1200, -60.934
1584.1300, -60.879
1584.1400, -60.548
1584.1500, -60.211
1584.1600, -60.717
1584.1700, -60.571
1584.1800, -60.878
1584.1900, -61.534
1584.2000, -61.302
1584.2100, -60.560
1584.2200, -60.733
1584.2300, -60.502
1584.2400, -61.264
1584.2500, -60.557
1584.2600, -60.694
1584.2700, -60.806
1584.2800, -61.028
1584.2900, -60.867
1584.3000, -60.723
1584.3100, -60.664
1584.3200, -60.525
1584.3300, -61.059
1584.3400, -60.300
1584.3500, -60.405
1584.3600, -60.813
1584.3700, -60.881
1584.3800, -60.802
1584.3900, -60.661
1584.4000, -60.914
1584.4100, -60.904
1584.4200, -60.715
1584.4300, -60.679
1584.4400, -60.350
1584.4500, -60.709
1584.4600, -61.301
1584.4700, -60.379
1584.4800, -60.405
1584.4900, -60.329
1584.5000, -60.364
1584.5100, -60.356
1584.5200, -60.422
1584.5300, -60.388
1584.5400, -60.080
1584.5500, -60.894
1584.5600, -60.699
1584.5700, -60.681
1584.5800, -60.457
1584.5900, -60.670
1584.6000, -60.484
1584.6100, -60.466
1584.6200, -60.154
1584.6300, -60.405
1584.6400, -60.253
1584.6500, -60.800
1584.6600, -60.340
1584.6700, -60.263
1584.6800, -60.202
1584.6900, -60.046
1584.7000, -60.261
1584.7100, -60.212
1584.7200, -59.837
1584.7300, -60.410
1584.7400, -60.216
1584.7500, -60.119
1584.7600, -60.142
1584.7700, -59.936
1584.7800, -59.767
1584.7900, -60.108
1584.8000, -59.920
1584.8100, -60.002
1584.8200, -59.595
1584.8300, -59.576
1584.8400, -60.023
1584.8500, -59.719
1584.8600, -59.744
1584.8700, -59.756
1584.8800, -59.688
1584.8900, -59.599
1584.9000, -59.389
1584.9100, -59.618
1584.9200, -59.566
1584.9300, -59.622
1584.9400, -59.442
1584.9500, -59.058
1584.9600, -59.370
1584.9700, -59.139
1584.9800, -59.232
1584.9900, -59.252
1585.0000, -59.225
1585.0100, -59.176
1585.0200, -58.990
1585.0300, -58.770
1585.0400, -58.656
1585.0500, -58.858
1585.0600, -58.585
1585.0700, -58.648
1585.0800, -58.237
1585.0900, -58.322
1585.1000, -58.386
1585.1100, -58.227
1585.1200, -58.094
1585.1300, -57.819
1585.1400, -57.842
1585.1500, -57.582
1585.1600, -57.536
1585.1700, -57.450
1585.1800, -57.530
1585.1900, -57.252
1585.2000, -57.148
1585.2100, -56.978
1585.2200, -56.803
1585.2300, -56.752
1585.2400, -56.576
1585.2500, -56.419
1585.2600, -56.091
1585.2700, -56.102
1585.2800, -55.730
1585.2900, -55.527
1585.3000, -55.536
1585.3100, -55.227
1585.3200, -55.073
1585.3300, -54.748
1585.3400, -54.567
1585.3500, -54.354
1585.3600, -54.087
1585.3700, -53.876
1585.3800, -53.490
1585.3900, -53.300
1585.4000, -52.984
1585.4100, -52.667
1585.4200, -52.555
1585.4300, -52.082
1585.4400, -51.984
1585.4500, -51.599
1585.4600, -51.348
1585.4700, -51.214
1585.4800, -50.948
1585.4900, -50.789
1585.5000, -50.650
1585.5100, -50.621
1585.5200, -50.532
1585.5300, -50.597
1585.5400, -50.752
1585.5500, -50.924
1585.5600, -51.159
1585.5700, -51.526
1585.5800, -51.831
1585.5900, -52.220
1585.6000, -52.666
1585.6100, -53.114
1585.6200, -53.588
1585.6300, -54.280
1585.6400, -54.569
1585.6500, -55.265
1585.6600, -55.677
1585.6700, -56.161
1585.6800, -56.768
1585.6900, -57.171
1585.7000, -57.934
1585.7100, -58.025
1585.7200, -58.792
1585.7300, -59.339
1585.7400, -59.635
1585.7500, -60.506
1585.7600, -60.740
1585.7700, -61.533
1585.7800, -61.963
1585.7900, -61.757
1585.8000, -62.919
1585.8100, -63.240
1585.8200, -62.923
1585.8300, -64.024
1585.8400, -65.498
1585.8500, -64.525
1585.8600, -64.120
1585.8700, -64.890
1585.8800, -67.363
1585.8900, -67.007
1585.9000, -66.452
1585.9100, -64.872
1585.9200, -65.909
1585.9300, -68.001
1585.9400, -70.160
1585.9500, -69.320
1585.9600, -68.392
1585.9700, -68.035
1585.9800, -69.593
1585.9900, -72.834
1586.0000, -76.220
1586.0100, -69.973
1586.0200, -75.205
1586.0300, -69.947
1586.0400, -70.138
1586.0500, -67.457
1586.0600,-210.000
1586.0700, -74.692
1586.0800, -67.929
1586.0900, -73.998
1586.1000, -80.141
1586.1100, -74.254
1586.1200, -76.454
1586.1300, -78.867
1586.1400, -70.193
1586.1500, -75.202
1586.1600, -73.817
1586.1700, -71.758
1586.1800, -71.225
1586.1900, -71.322
1586.2000,-210.000
1586.2100,-210.000
1586.2200, -77.756
1586.2300, -72.404
1586.2400, -76.451
1586.2500, -72.248
1586.2600, -71.734
1586.2700, -70.209
1586.2800, -70.652
1586.2900, -69.669
1586.3000, -69.807
1586.3100, -70.841
1586.3200, -71.819
1586.3300,-210.000
1586.3400, -74.794
1586.3500, -73.277
1586.3600, -73.812
1586.3700,-210.000
1586.3800, -73.049
1586.3900, -94.101
1586.4000, -72.724
1586.4100, -72.035
1586.4200,-210.000
1586.4300, -72.583
1586.4400, -72.561
1586.4500,-210.000
1586.4600, -71.617
1586.4700, -82.697
1586.4800, -70.461
1586.4900, -86.035
1586.5000,-210.000
1586.5100, -77.860
1586.5200, -70.223
1586.5300, -80.768
1586.5400, -73.827
1586.5500, -74.420
1586.5600, -72.180
1586.5700,-210.000
1586.5800, -73.156
1586.5900, -76.363
1586.6000, -74.270
1586.6100, -71.973
1586.6200,-210.000
1586.6300,-210.000
1586.6400, -76.301
1586.6500,-210.000
1586.6600, -69.137
1586.6700, -71.692
1586.6800, -86.834
1586.6900, -70.279
1586.7000, -74.624
1586.7100, -70.600
1586.7200, -73.005
1586.7300,-210.000
1586.7400, -72.077
1586.7500, -72.521
1586.7600, -82.992
1586.7700,-210.000
1586.7800,-210.000
1586.7900, -75.980
1586.8000,-210.000
1586.8100, -71.133
1586.8200, -77.135
1586.8300, -70.909
1586.8400, -73.266
1586.8500, -75.247
1586.8600, -83.787
1586.8700, -72.113
1586.8800, -73.587
1586.8900, -78.579
1586.9000,-210.000
1586.9100, -75.835
1586.9200, -69.668
1586.9300, -73.934
1586.9400, -75.066
1586.9500,-210.000
1586.9600, -72.452
1586.9700, -70.573
1586.9800, -76.516
1586.9900, -70.368
1587.0000, -73.712
1587.0100, -76.342
1587.0200,-210.000
1587.0300, -69.879
1587.0400, -68.923
1587.0500, -75.004
1587.0600, -77.323
1587.0700, -68.633
1587.0800, -71.524
1587.0900, -71.498
1587.1000, -74.833
1587.1100, -70.612
1587.1200, -80.167
1587.1300, -85.344
1587.1400, -70.633
1587.1500,-210.000
1587.1600, -74.104
1587.1700, -76.350
1587.1800, -71.294
1587.1900, -75.691
1587.2000, -72.516
1587.2100, -70.038
1587.2200, -71.811
1587.2300, -71.762
1587.2400, -72.319
1587.2500, -72.105
1587.2600, -79.779
1587.2700,-210.000
1587.2800, -71.392
1587.2900, -75.669
1587.3000, -73.441
1587.3100, -69.630
1587.3200, -71.815
1587.3300, -86.820
1587.3400,-210.000
1587.3500, -71.760
1587.3600, -72.014
1587.3700,-210.000
1587.3800, -73.216
1587.3900, -72.550
1587.4000, -76.759
1587.4100, -74.504
1587.4200, -73.474
1587.4300, -72.707
1587.4400,-210.000
1587.4500, -72.160
1587.4600, -69.798
1587.4700, -73.214
1587.4800, -79.510
1587.4900, -69.471
1587.5000, -73.967
1587.5100, -73.061
1587.5200,-210.000
1587.5300, -74.714
1587.5400, -71.755
1587.5500,-210.000
1587.5600, -73.289
1587.5700,-210.000
1587.5800, -70.749
1587.5900,-210.000
1587.6000, -73.874
1587.6100, -74.152
1587.6200, -74.448
1587.6300, -72.299
1587.6400, -77.618
1587.6500, -81.717
1587.6600,-210.000
1587.6700, -71.726
1587.6800, -69.505
1587.6900, -75.290
1587.7000, -73.286
1587.7100, -70.014
1587.7200,-210.000
1587.7300, -72.124
1587.7400, -70.101
1587.7500, -71.696
1587.7600, -71.862
1587.7700, -70.473
1587.7800, -76.346
1587.7900, -70.555
1587.8000, -69.970
1587.8100, -71.695
1587.8200, -67.937
1587.8300, -70.370
1587.8400, -70.922
1587.8500, -72.379
1587.8600, -74.707
1587.8700, -74.146
1587.8800, -71.639
1587.8900, -70.856
1587.9000, -72.464
1587.9100, -72.801
1587.9200,-210.000
1587.9300,-210.000
1587.9400, -69.550
1587.9500, -72.800
1587.9600, -72.060
1587.9700, -72.149
1587.9800, -73.099
1587.9900,-210.000
1588.0000, -72.494
1588.0100, -72.178
1588.0200, -72.904
1588.0300, -72.660
1588.0400, -73.776
1588.0500, -71.942
1588.0600,-210.000
1588.0700, -74.490
1588.0800, -68.558
1588.0900, -70.783
1588.1000, -76.175
1588.1100, -73.140
1588.1200, -71.225
1588.1300, -71.058
1588.1400, -75.172
1588.1500, -78.551
1588.1600,-210.000
1588.1700, -73.160
1588.1800, -69.241
1588.1900, -69.044
1588.2000, -74.699
1588.2100, -74.235
1588.2200, -73.772
1588.2300, -73.236
1588.2400, -73.094
1588.2500, -72.573
1588.2600, -72.173
1588.2700, -73.158
1588.2800, -71.031
1588.2900, -67.962
1588.3000, -71.432
1588.3100, -74.042
1588.3200, -72.722
1588.3300, -68.539
1588.3400, -71.197
1588.3500, -77.498
1588.3600, -71.906
1588.3700, -86.926
1588.3800, -73.382
1588.3900, -69.813
1588.4000, -75.338
1588.4100, -70.182
1588.4200, -77.394
1588.4300,-210.000
1588.4400, -76.915
1588.4500, -70.914
1588.4600, -70.030
1588.4700, -68.146
1588.4800, -67.889
1588.4900, -69.488
1588.5000, -70.680
1588.5100, -69.037
1588.5200, -68.993
1588.5300, -70.733
1588.5400, -70.160
1588.5500, -70.887
1588.5600, -69.295
1588.5700, -69.793
1588.5800, -70.334
1588.5900, -69.050
1588.6000, -75.616
1588.6100, -69.536
1588.6200, -77.493
1588.6300, -71.760
1588.6400, -69.324
1588.6500, -69.862
1588.6600, -72.959
1588.6700, -70.752
1588.6800, -74.177
1588.6900, -72.819
1588.7000, -73.074
1588.7100, -73.676
1588.7200, -72.104
1588.7300, -70.728
1588.7400, -70.099
1588.7500, -76.929
1588.7600, -74.911
1588.7700, -70.024
1588.7800, -67.319
1588.7900, -71.462
1588.8000, -68.745
1588.8100, -67.390
1588.8200, -67.951
1588.8300,-210.000
1588.8400, -69.865
1588.8500, -69.400
1588.8600, -68.175
1588.8700, -66.553
1588.8800, -67.949
1588.8900, -73.629
1588.9000, -67.995
1588.9100, -67.333
1588.9200, -66.577
1588.9300, -68.308
1588.9400, -66.653
1588.9500, -66.069
1588.9600, -64.227
1588.9700, -64.757
1588.9800, -64.551
1588.9900, -64.913
1589.0000, -63.781
1589.0100, -64.310
1589.0200, -64.213
1589.0300, -63.031
1589.0400, -63.363
1589.0500, -62.412
1589.0600, -61.996
1589.0700, -61.266
1589.0800, -60.845
1589.0900, -61.145
1589.1000, -60.535
1589.1100, -60.601
1589.1200, -60.508
1589.1300, -60.114
1589.1400, -60.581
1589.1500, -60.366
1589.1600, -60.874
1589.1700, -61.456
1589.1800, -61.962
1589.1900, -62.080
1589.2000, -61.698
1589.2100, -62.980
1589.2200, -63.125
1589.2300, -63.236
1589.2400, -64.966
1589.2500, -63.914
1589.2600, -65.078
1589.2700, -66.056
1589.2800, -66.445
1589.2900, -66.404
1589.3000, -65.822
1589.3100, -66.539
1589.3200, -67.598
1589.3300, -69.035
1589.3400, -68.128
1589.3500, -69.155
1589.3600, -69.884
1589.3700, -69.123
1589.3800, -67.157
1589.3900, -69.470
1589.4000, -70.200
1589.4100, -71.348
1589.4200,-210.000
1589.4300, -69.757
1589.4400, -70.398
1589.4500, -71.054
1589.4600, -71.667
1589.4700, -73.290
1589.4800, -70.316
1589.4900, -71.321
1589.5000, -72.335
1589.5100, -72.768
1589.5200, -72.664
1589.5300, -75.851
1589.5400, -72.838
1589.5500, -71.045
1589.5600,-210.000
1589.5700, -73.702
1589.5800, -70.889
1589.5900, -73.878
1589.6000,-210.000
1589.6100, -70.340
1589.6200, -94.032
1589.6300, -69.074
1589.6400, -69.701
1589.6500, -76.142
1589.6600, -74.354
1589.6700, -72.799
1589.6800, -70.155
1589.6900, -81.955
1589.7000, -72.978
1589.7100, -81.269
1589.7200, -71.574
1589.7300, -71.764
1589.7400,-210.000
1589.7500,-210.000
1589.7600, -79.232
1589.7700,-210.000
1589.7800,-210.000
1589.7900, -77.071
1589.8000, -73.387
1589.8100, -80.697
1589.8200,-210.000
1589.8300, -69.890
1589.8400, -72.109
1589.8500, -70.307
1589.8600, -78.929
1589.8700, -72.486
1589.8800, -73.399
1589.8900,-210.000
1589.9000, -72.306
1589.9100, -71.677
1589.9200, -69.312
1589.9300, -71.113
1589.9400, -71.621
1589.9500, -71.515
1589.9600, -79.075
1589.9700, -73.519
1589.9800, -76.703
1589.9900, -77.066
1590.0000,-210.000
1590.0100, -70.765
1590.0200, -70.721
1590.0300, -71.257
1590.0400, -70.569
1590.0500,-210.000
1590.0600, -84.694
1590.0700, -79.383
1590.0800, -74.549
1590.0900, -71.347
1590.1000,-210.000
1590.1100, -74.995
1590.1200,-210.000
1590.1300,-210.000
1590.1400,-210.000
1590.1500, -72.750
1590.1600, -82.243
1590.1700,-210.000
1590.1800,-210.000
1590.1900,-210.000
1590.2000, -72.099
1590.2100, -77.668
1590.2200, -71.403
1590.2300, -74.093
1590.2400, -82.915
1590.2500, -72.105
1590.2600, -71.559
1590.2700,-210.000
1590.2800, -75.622
1590.2900,-210.000
1590.3000,-210.000
1590.3100, -73.036
1590.3200, -74.187
1590.3300, -76.962
1590.3400,-210.000
1590.3500,-210.000
1590.3600, -73.148
1590.3700, -70.936
1590.3800, -74.334
1590.3900,-210.000
1590.4000,-210.000
1590.4100,-210.000
1590.4200, -78.243
1590.4300, -74.332
1590.4400, -73.629
1590.4500, -77.554
1590.4600,-210.000
1590.4700,-210.000
1590.4800,-210.000
1590.4900, -73.633
1590.5000, -70.019
1590.5100,-210.000
1590.5200, -74.381
1590.5300, -74.906
1590.5400, -73.588
1590.5500,-210.000
1590.5600,-210.000
1590.5700, -74.644
1590.5800, -74.809
1590.5900,-210.000
1590.6000, -70.367
1590.6100, -75.285
1590.6200, -70.266
1590.6300,-210.000
1590.6400, -75.612
1590.6500, -72.240
1590.6600, -69.090
1590.6700,-210.000
1590.6800, -79.529
1590.6900, -72.055
1590.7000, -72.563
1590.7100, -87.727
1590.7200,-210.000
1590.7300,-210.000
1590.7400, -74.324
1590.7500,-210.000
1590.7600, -68.794
1590.7700, -73.293
1590.7800, -71.625
1590.7900, -89.001
1590.8000,-210.000
1590.8100, -71.652
1590.8200, -71.216
1590.8300, -77.650
1590.8400,-210.000
1590.8500, -76.186
1590.8600,-210.000
1590.8700,-210.000
1590.8800, -70.631
1590.8900, -67.063
1590.9000, -73.707
1590.9100, -73.171
1590.9200,-210.000
1590.9300, -70.006
1590.9400, -71.013
1590.9500, -78.228
1590.9600,-210.000
1590.9700, -72.657
1590.9800, -70.157
1590.9900, -73.977
1591.0000, -71.304
1591.0100, -70.737
1591.0200, -73.768
1591.0300, -79.869
1591.0400,-210.000
1591.0500, -75.088
1591.0600, -68.959
1591.0700,-210.000
1591.0800,-210.000
1591.0900, -90.810
1591.1000, -70.691
1591.1100, -73.209
1591.1200,-210.000
1591.1300, -71.056
1591.1400, -69.107
1591.1500, -70.114
1591.1600,-210.000
1591.1700,-210.000
1591.1800, -86.728
1591.1900, -81.913
1591.2000,-210.000
1591.2100, -76.416
1591.2200, -76.254
1591.2300, -76.582
1591.2400, -80.242
1591.2500, -76.333
1591.2600, -75.460
1591.2700, -76.405
1591.2800, -72.649
1591.2900, -76.580
1591.3000, -73.524
1591.3100, -75.141
1591.3200,-210.000
1591.3300,-210.000
1591.3400, -81.909
1591.3500,-210.000
1591.3600, -73.490
1591.3700, -85.920
1591.3800,-210.000
1591.3900, -80.877
1591.4000,-210.000
1591.4100, -81.907
1591.4200, -73.438
1591.4300, -70.999
1591.4400, -71.420
1591.4500, -70.594
1591.4600, -75.311
1591.4700, -71.974
1591.4800, -70.029
1591.4900, -69.097
1591.5000, -73.779
1591.5100, -78.740
1591.5200,-210.000
1591.5300, -73.476
1591.5400,-210.000
1591.5500, -78.755
1591.5600, -77.630
1591.5700, -71.496
1591.5800,-210.000
1591.5900,-210.000
1591.6000,-210.000
1591.6100, -71.657
1591.6200, -74.725
1591.6300, -73.269
1591.6400,-210.000
1591.6500, -76.543
1591.6600, -75.320
1591.6700, -75.583
1591.6800, -74.101
1591.6900, -72.011
1591.7000, -84.649
1591.7100, -71.852
1591.7200,-210.000
1591.7300, -74.348
1591.7400, -80.229
1591.7500, -74.558
1591.7600, -73.429
1591.7700, -83.253
1591.7800,-210.000
1591.7900, -71.879
1591.8000, -73.110
1591.8100, -72.368
1591.8200, -71.308
1591.8300, -73.955
1591.8400,-210.000
1591.8500, -79.669
1591.8600,-210.000
1591.8700,-210.000
1591.8800, -71.800
1591.8900, -72.024
1591.9000, -71.488
1591.9100,-210.000
1591.9200,-210.000
1591.9300, -69.322
1591.9400,-210.000
1591.9500, -74.607
1591.9600, -74.773
1591.9700, -73.302
1591.9800, -83.119
1591.9900, -76.315
1592.0000, -79.172
1592.0100, -77.620
1592.0200,-210.000
1592.0300, -73.301
1592.0400, -70.494
1592.0500, -71.620
1592.0600, -90.786
1592.0700, -74.240
1592.0800, -70.382
1592.0900, -73.996
1592.1000, -69.670
1592.1100, -73.903
1592.1200, -73.326
1592.1300, -72.560
1592.1400, -70.167
1592.1500, -84.123
1592.1600, -72.950
1592.1700, -72.697
1592.1800, -73.589
1592.1900, -93.964
1592.2000, -71.509
1592.2100, -68.766
1592.2200, -71.561
1592.2300, -72.295
1592.2400, -74.493
1592.2500, -82.189
1592.2600, -74.136
1592.2700, -80.023
1592.2800, -85.222
1592.2900, -78.321
1592.3000, -69.412
1592.3100, -71.997
1592.3200,-210.000
1592.3300,-210.000
1592.3400, -74.284
1592.3500, -78.721
1592.3600, -82.186
1592.3700, -71.399
1592.3800, -70.726
1592.3900, -72.589
1592.4000, -72.657
1592.4100, -71.332
1592.4200, -75.177
1592.4300, -77.003
1592.4400, -74.542
1592.4500, -68.109
1592.4600, -74.596
1592.4700,-210.000
1592.4800, -70.724
1592.4900,-210.000
1592.5000,-210.000
1592.5100,-210.000
1592.5200,-210.000
1592.5300,-210.000
1592.5400, -78.259
1592.5500,-210.000
1592.5600, -73.712
1592.5700,-210.000
1592.5800, -76.814
1592.5900, -77.717
1592.6000, -73.452
1592.6100, -73.370
1592.6200, -78.716
1592.6300, -81.879
1592.6400, -74.905
1592.6500, -74.177
1592.6600, -75.298
1592.6700, -72.616
1592.6800,-210.000
1592.6900, -75.914
1592.7000, -86.693
1592.7100, -80.208
1592.7200, -70.574
1592.7300, -80.622
1592.7400, -80.410
1592.7500, -77.392
1592.7600,-210.000
1592.7700, -75.295
1592.7800,-210.000
1592.7900, -83.648
1592.8000, -70.993
1592.8100, -83.230
1592.8200, -84.108
1592.8300, -70.992
1592.8400, -71.798
1592.8500, -73.163
1592.8600,-210.000
1592.8700, -74.456
1592.8800, -79.825
1592.8900, -73.009
1592.9000, -79.000
1592.9100, -74.899
1592.9200,-210.000
1592.9300,-210.000
1592.9400,-210.000
1592.9500, -74.121
1592.9600, -71.492
1592.9700, -73.792
1592.9800,-210.000
1592.9900, -70.227
1593.0000, -76.213
1593.0100, -88.480
1593.0200, -85.883
1593.0300, -78.179
1593.0400, -75.906
1593.0500, -76.056
1593.0600,-210.000
1593.0700,-210.000
1593.0800,-210.000
1593.0900, -75.218
1593.1000, -81.588
1593.1100, -70.206
1593.1200, -88.946
1593.1300,-210.000
1593.1400, -68.896
1593.1500,-210.000
1593.1600, -79.147
1593.1700, -76.537
1593.1800, -76.801
1593.1900, -73.833
1593.2000, -69.698
1593.2100, -75.351
1593.2200, -72.024
1593.2300,-210.000
1593.2400, -77.919
1593.2500, -72.604
1593.2600, -77.931
1593.2700,-210.000
1593.2800, -78.844
1593.2900, -73.785
1593.3000,-210.000
1593.3100,-210.000
1593.3200, -71.457
1593.3300, -73.153
1593.3400,-210.000
1593.3500,-210.000
1593.3600,-210.000
1593.3700,-210.000
1593.3800,-210.000
1593.3900, -75.684
1593.4000, -80.395
1593.4100, -78.047
1593.4200,-210.000
1593.4300, -72.465
1593.4400, -82.836
1593.4500, -78.559
1593.4600, -72.599
1593.4700,-210.000
1593.4800, -75.682
1593.4900, -74.361
1593.5000, -76.123
1593.5100,-210.000
1593.5200,-210.000
1593.5300, -70.613
1593.5400, -70.952
1593.5500,-210.000
1593.5600, -72.702
1593.5700, -84.608
1593.5800, -76.528
1593.5900, -76.044
1593.6000, -79.296
1593.6100,-210.000
1593.6200, -76.976
1593.6300,-210.000
1593.6400,-210.000
1593.6500, -71.779
1593.6600, -76.651
1593.6700,-210.000
1593.6800,-210.000
1593.6900, -71.894
1593.7000, -70.832
1593.7100, -72.769
1593.7200, -75.085
1593.7300, -83.209
1593.7400, -73.774
1593.7500, -75.038
1593.7600, -72.661
1593.7700, -80.386
1593.7800, -73.026
1593.7900,-210.000
1593.8000, -73.181
1593.8100,-210.000
1593.8200,-210.000
1593.8300,-210.000
1593.8400, -83.623
1593.8500,-210.000
1593.8600, -90.745
1593.8700,-210.000
1593.8800, -81.569
1593.8900,-210.000
1593.9000, -74.509
1593.9100, -71.604
1593.9200,-210.000
1593.9300,-210.000
1593.9400, -72.485
1593.9500, -78.546
1593.9600, -72.451
1593.9700, -77.160
1593.9800,-210.000
1593.9900,-210.000
1594.0000, -74.506
