70BCSV 	
// AQ6370D OPTICAL SPECTRUM ANALYZER //                 
30
"CTRWL",1569.500000
"SPAN",  40.000000
"START WL",1549.500000
"STOP WL",1589.500000
"WLFREQ", 0
"REFL",-26.2
"LSCL",10.0
"RESLN",0.050
"AVG",   1
"SMPLAUTO",      1
"SMPL",       4001
"SMPLINTVL",0.0100
"NORMAL"
"MEAS"
"LSUNT",0
"NMSKH","OFF"
"RESCOR",0
"SMOOTH",0
"FIBERTYPE",0
"MEASWL",0
"SWPSPD",1
"NEBWCAL0",    0
"NEBWCAL1",    0
"NEBWCALWL",   0
"RESPARM", 9230
"FREQPARM", 9230




"[TRACE DATA]"
1549.5000, -73.635
1549.5100,-210.000
1549.5200, -82.203
1549.5300, -75.325
1549.5400, -72.297
1549.5500, -75.325
1549.5600, -71.848
1549.5700, -73.649
1549.5800, -71.218
1549.5900, -71.689
1549.6000, -80.436
1549.6100, -70.815
1549.6200, -74.362
1549.6300, -72.443
1549.6400, -71.089
1549.6500, -71.887
1549.6600, -73.123
1549.6700, -79.342
1549.6800, -73.737
1549.6900,-210.000
1549.7000, -73.698
1549.7100,-210.000
1549.7200,-210.000
1549.7300, -85.907
1549.7400, -72.381
1549.7500, -74.059
1549.7600,-210.000
1549.7700,-210.000
1549.7800, -74.205
1549.7900, -70.078
1549.8000, -71.689
1549.8100, -73.123
1549.8200, -71.579
1549.8300, -70.628
1549.8400, -73.692
1549.8500, -71.674
1549.8600, -70.769
1549.8700, -70.803
1549.8800, -70.125
1549.8900, -75.038
1549.9000, -69.863
1549.9100, -71.327
1549.9200, -72.856
1549.9300, -73.472
1549.9400, -69.936
1549.9500, -73.509
1549.9600, -69.253
1549.9700, -76.237
1549.9800, -77.631
1549.9900, -73.775
1550.0000,-210.000
1550.0100, -70.443
1550.0200, -70.466
1550.0300,-210.000
1550.0400, -71.118
1550.0500, -75.198
1550.0600, -75.103
1550.0700, -75.324
1550.0800, -78.212
1550.0900, -71.317
1550.1000, -70.553
1550.1100, -72.679
1550.1200, -71.094
1550.1300, -71.847
1550.1400, -71.446
1550.1500, -77.329
1550.1600, -73.736
1550.1700, -71.699
1550.1800,-210.000
1550.1900,-210.000
1550.2000, -73.079
1550.2100, -72.159
1550.2200, -73.648
1550.2300, -72.000
1550.2400, -72.344
1550.2500, -72.409
1550.2600,-210.000
1550.2700, -75.091
1550.2800, -70.125
1550.2900, -83.458
1550.3000, -73.274
1550.3100, -75.779
1550.3200, -75.655
1550.3300, -72.212
1550.3400, -70.085
1550.3500, -69.454
1550.3600, -71.922
1550.3700, -72.965
1550.3800, -70.442
1550.3900, -75.587
1550.4000, -74.783
1550.4100, -81.106
1550.4200, -72.240
1550.4300, -72.678
1550.4400, -72.437
1550.4500,-210.000
1550.4600, -71.461
1550.4700, -73.002
1550.4800, -78.669
1550.4900,-210.000
1550.5000, -77.510
1550.5100, -72.609
1550.5200, -76.826
1550.5300, -77.216
1550.5400,-210.000
1550.5500, -71.498
1550.5600, -71.066
1550.5700, -70.124
1550.5800, -71.130
1550.5900, -73.962
1550.6000, -76.888
1550.6100, -71.498
1550.6200, -75.795
1550.6300, -68.270
1550.6400, -83.253
1550.6500, -76.671
1550.6600, -72.507
1550.6700, -72.704
1550.6800,-210.000
1550.6900,-210.000
1550.7000,-210.000
1550.7100, -72.859
1550.7200, -71.578
1550.7300, -71.069
1550.7400, -69.001
1550.7500, -68.977
1550.7600, -76.100
1550.7700, -71.266
1550.7800, -72.643
1550.7900, -68.831
1550.8000, -69.256
1550.8100, -72.093
1550.8200, -79.047
1550.8300, -77.117
1550.8400, -72.669
1550.8500, -75.387
1550.8600, -69.897
1550.8700, -71.507
1550.8800, -71.798
1550.8900, -69.847
1550.9000, -73.734
1550.9100, -69.439
1550.9200, -72.890
1550.9300, -71.721
1550.9400, -70.903
1550.9500, -69.127
1550.9600, -71.234
1550.9700, -68.731
1550.9800, -72.211
1550.9900, -76.089
1551.0000, -72.378
1551.0100, -68.216
1551.0200, -71.577
1551.0300, -69.616
1551.0400, -69.096
1551.0500, -70.840
1551.0600, -68.526
1551.0700, -71.895
1551.0800, -71.253
1551.0900, -69.473
1551.1000, -71.325
1551.1100, -69.066
1551.1200, -70.801
1551.1300, -72.247
1551.1400, -70.533
1551.1500, -70.181
1551.1600, -73.154
1551.1700, -71.714
1551.1800, -77.509
1551.1900, -72.184
1551.2000, -68.175
1551.2100, -70.123
1551.2200, -70.700
1551.2300, -70.703
1551.2400,-210.000
1551.2500, -69.691
1551.2600, -71.190
1551.2700, -69.571
1551.2800, -70.527
1551.2900, -68.698
1551.3000, -69.267
1551.3100, -79.047
1551.3200, -69.148
1551.3300, -70.119
1551.3400, -69.025
1551.3500, -69.477
1551.3600, -73.618
1551.3700, -68.445
1551.3800, -68.506
1551.3900, -67.494
1551.4000, -70.588
1551.4100, -70.699
1551.4200, -69.310
1551.4300, -70.463
1551.4400, -69.112
1551.4500, -70.788
1551.4600, -72.406
1551.4700, -74.448
1551.4800, -68.511
1551.4900, -68.721
1551.5000, -68.153
1551.5100, -69.752
1551.5200, -69.561
1551.5300, -68.588
1551.5400, -69.823
1551.5500, -66.915
1551.5600, -67.624
1551.5700, -69.612
1551.5800, -68.883
1551.5900, -67.961
1551.6000, -66.514
1551.6100, -69.915
1551.6200, -66.695
1551.6300, -67.484
1551.6400, -66.306
1551.6500, -67.961
1551.6600, -65.608
1551.6700, -65.554
1551.6800, -65.726
1551.6900, -65.943
1551.7000, -65.747
1551.7100, -65.519
1551.7200, -64.801
1551.7300, -65.149
1551.7400, -64.373
1551.7500, -64.179
1551.7600, -64.257
1551.7700, -64.264
1551.7800, -64.297
1551.7900, -63.934
1551.8000, -63.672
1551.8100, -63.200
1551.8200, -63.832
1551.8300, -63.123
1551.8400, -62.124
1551.8500, -62.259
1551.8600, -61.619
1551.8700, -61.246
1551.8800, -61.287
1551.8900, -61.051
1551.9000, -60.818
1551.9100, -60.905
1551.9200, -60.753
1551.9300, -60.522
1551.9400, -59.914
1551.9500, -59.553
1551.9600, -59.708
1551.9700, -59.520
1551.9800, -59.102
1551.9900, -58.687
1552.0000, -58.695
1552.0100, -58.624
1552.0200, -58.513
1552.0300, -58.331
1552.0400, -58.147
1552.0500, -57.838
1552.0600, -57.771
1552.0700, -57.829
1552.0800, -57.681
1552.0900, -57.497
1552.1000, -57.467
1552.1100, -57.240
1552.1200, -57.347
1552.1300, -57.282
1552.1400, -57.253
1552.1500, -57.179
1552.1600, -57.225
1552.1700, -57.185
1552.1800, -57.387
1552.1900, -57.546
1552.2000, -57.382
1552.2100, -57.330
1552.2200, -57.687
1552.2300, -57.695
1552.2400, -57.768
1552.2500, -57.845
1552.2600, -57.913
1552.2700, -57.880
1552.2800, -58.130
1552.2900, -58.183
1552.3000, -58.255
1552.3100, -58.588
1552.3200, -58.456
1552.3300, -58.883
1552.3400, -59.141
1552.3500, -59.220
1552.3600, -59.337
1552.3700, -59.106
1552.3800, -59.587
1552.3900, -59.797
1552.4000, -60.110
1552.4100, -59.807
1552.4200, -60.023
1552.4300, -60.368
1552.4400, -60.500
1552.4500, -60.942
1552.4600, -60.869
1552.4700, -61.333
1552.4800, -60.552
1552.4900, -61.089
1552.5000, -61.166
1552.5100, -61.873
1552.5200, -61.367
1552.5300, -61.162
1552.5400, -61.515
1552.5500, -61.730
1552.5600, -61.981
1552.5700, -61.938
1552.5800, -61.661
1552.5900, -62.401
1552.6000, -62.083
1552.6100, -62.594
1552.6200, -62.168
1552.6300, -62.702
1552.6400, -62.456
1552.6500, -63.075
1552.6600, -63.131
1552.6700, -62.910
1552.6800, -62.316
1552.6900, -62.991
1552.7000, -63.017
1552.7100, -63.449
1552.7200, -62.487
1552.7300, -62.339
1552.7400, -62.747
1552.7500, -63.299
1552.7600, -63.622
1552.7700, -63.151
1552.7800, -62.938
1552.7900, -62.891
1552.8000, -63.600
1552.8100, -63.515
1552.8200, -63.511
1552.8300, -63.515
1552.8400, -63.825
1552.8500, -63.987
1552.8600, -63.554
1552.8700, -64.126
1552.8800, -64.189
1552.8900, -64.184
1552.9000, -63.871
1552.9100, -64.460
1552.9200, -64.438
1552.9300, -64.130
1552.9400, -63.291
1552.9500, -63.987
1552.9600, -64.007
1552.9700, -63.591
1552.9800, -64.003
1552.9900, -63.630
1553.0000, -63.661
1553.0100, -64.945
1553.0200, -63.433
1553.0300, -63.816
1553.0400, -64.058
1553.0500, -63.913
1553.0600, -64.485
1553.0700, -64.980
1553.0800, -64.293
1553.0900, -65.294
1553.1000, -64.975
1553.1100, -63.865
1553.1200, -64.166
1553.1300, -63.430
1553.1400, -64.533
1553.1500, -64.442
1553.1600, -64.323
1553.1700, -64.235
1553.1800, -64.593
1553.1900, -64.489
1553.2000, -64.548
1553.2100, -64.145
1553.2200, -65.059
1553.2300, -64.086
1553.2400, -64.924
1553.2500, -64.893
1553.2600, -64.423
1553.2700, -65.294
1553.2800, -64.170
1553.2900, -65.017
1553.3000, -65.032
1553.3100, -64.139
1553.3200, -64.510
1553.3300, -64.257
1553.3400, -64.489
1553.3500, -64.745
1553.3600, -64.344
1553.3700, -65.203
1553.3800, -65.071
1553.3900, -64.479
1553.4000, -65.352
1553.4100, -65.562
1553.4200, -64.024
1553.4300, -66.202
1553.4400, -65.084
1553.4500, -66.444
1553.4600, -64.837
1553.4700, -64.611
1553.4800, -65.508
1553.4900, -64.832
1553.5000, -65.235
1553.5100, -63.966
1553.5200, -65.508
1553.5300, -65.175
1553.5400, -64.504
1553.5500, -63.985
1553.5600, -64.349
1553.5700, -64.257
1553.5800, -65.076
1553.5900, -64.722
1553.6000, -64.787
1553.6100, -65.057
1553.6200, -64.196
1553.6300, -64.999
1553.6400, -65.330
1553.6500, -64.333
1553.6600, -64.834
1553.6700, -65.025
1553.6800, -64.879
1553.6900, -64.383
1553.7000, -65.956
1553.7100, -65.329
1553.7200, -65.267
1553.7300, -65.147
1553.7400, -64.596
1553.7500, -65.086
1553.7600, -65.321
1553.7700, -66.007
1553.7800, -64.219
1553.7900, -65.906
1553.8000, -64.832
1553.8100, -65.383
1553.8200, -65.532
1553.8300, -64.302
1553.8400, -63.471
1553.8500, -64.436
1553.8600, -64.345
1553.8700, -66.293
1553.8800, -64.165
1553.8900, -65.219
1553.9000, -64.965
1553.9100, -65.188
1553.9200, -64.655
1553.9300, -64.421
1553.9400, -65.237
1553.9500, -65.047
1553.9600, -65.119
1553.9700, -64.602
1553.9800, -65.938
1553.9900, -66.042
1554.0000, -65.686
1554.0100, -65.409
1554.0200, -64.953
1554.0300, -64.666
1554.0400, -65.524
1554.0500, -65.070
1554.0600, -64.683
1554.0700, -64.479
1554.0800, -65.827
1554.0900, -66.870
1554.1000, -65.922
1554.1100, -64.931
1554.1200, -66.512
1554.1300, -65.962
1554.1400, -64.855
1554.1500, -65.375
1554.1600, -65.305
1554.1700, -65.740
1554.1800, -65.255
1554.1900, -66.754
1554.2000, -65.156
1554.2100, -64.576
1554.2200, -65.964
1554.2300, -65.623
1554.2400, -64.258
1554.2500, -64.399
1554.2600, -63.995
1554.2700, -65.581
1554.2800, -65.080
1554.2900, -65.854
1554.3000, -65.503
1554.3100, -65.151
1554.3200, -64.832
1554.3300, -65.195
1554.3400, -65.959
1554.3500, -66.220
1554.3600, -65.188
1554.3700, -66.125
1554.3800, -64.801
1554.3900, -65.817
1554.4000, -66.098
1554.4100, -68.420
1554.4200, -67.313
1554.4300, -66.878
1554.4400, -66.858
1554.4500, -65.509
1554.4600, -65.760
1554.4700, -66.482
1554.4800, -67.411
1554.4900, -65.990
1554.5000, -66.813
1554.5100, -67.625
1554.5200, -66.804
1554.5300, -65.239
1554.5400, -66.005
1554.5500, -66.035
1554.5600, -66.280
1554.5700, -68.234
1554.5800, -67.019
1554.5900, -65.686
1554.6000, -66.142
1554.6100, -67.130
1554.6200, -66.467
1554.6300, -65.521
1554.6400, -66.582
1554.6500, -66.993
1554.6600, -65.727
1554.6700, -66.517
1554.6800, -66.388
1554.6900, -66.990
1554.7000, -66.874
1554.7100, -66.226
1554.7200, -67.622
1554.7300, -67.071
1554.7400, -66.697
1554.7500, -67.888
1554.7600, -66.554
1554.7700, -66.045
1554.7800, -65.840
1554.7900, -67.344
1554.8000, -66.249
1554.8100, -67.907
1554.8200, -68.347
1554.8300, -66.495
1554.8400, -68.212
1554.8500, -67.556
1554.8600, -71.301
1554.8700, -69.196
1554.8800, -69.149
1554.8900, -69.471
1554.9000, -71.889
1554.9100, -69.015
1554.9200, -67.346
1554.9300, -69.561
1554.9400, -67.577
1554.9500, -68.520
1554.9600, -70.117
1554.9700, -68.514
1554.9800, -68.697
1554.9900, -76.380
1555.0000, -68.081
1555.0100,-210.000
1555.0200, -69.370
1555.0300, -69.743
1555.0400, -71.976
1555.0500, -73.027
1555.0600, -71.289
1555.0700, -70.015
1555.0800, -69.836
1555.0900, -70.334
1555.1000, -73.371
1555.1100, -71.417
1555.1200, -69.949
1555.1300, -70.673
1555.1400, -70.526
1555.1500, -71.915
1555.1600, -69.534
1555.1700, -68.743
1555.1800, -68.992
1555.1900, -69.484
1555.2000, -71.064
1555.2100, -69.510
1555.2200, -67.141
1555.2300, -66.565
1555.2400, -67.731
1555.2500, -67.910
1555.2600, -65.025
1555.2700, -65.313
1555.2800, -65.054
1555.2900, -64.336
1555.3000, -64.284
1555.3100, -62.916
1555.3200, -63.045
1555.3300, -62.748
1555.3400, -61.938
1555.3500, -61.559
1555.3600, -60.728
1555.3700, -60.332
1555.3800, -59.939
1555.3900, -59.326
1555.4000, -58.654
1555.4100, -58.493
1555.4200, -58.184
1555.4300, -57.356
1555.4400, -57.000
1555.4500, -56.430
1555.4600, -55.806
1555.4700, -55.195
1555.4800, -54.784
1555.4900, -54.198
1555.5000, -53.557
1555.5100, -53.257
1555.5200, -52.715
1555.5300, -52.414
1555.5400, -51.739
1555.5500, -51.326
1555.5600, -50.818
1555.5700, -50.310
1555.5800, -49.940
1555.5900, -49.443
1555.6000, -49.042
1555.6100, -48.718
1555.6200, -48.371
1555.6300, -47.859
1555.6400, -47.413
1555.6500, -47.067
1555.6600, -46.817
1555.6700, -46.583
1555.6800, -46.084
1555.6900, -45.808
1555.7000, -45.637
1555.7100, -45.279
1555.7200, -45.205
1555.7300, -44.911
1555.7400, -44.795
1555.7500, -44.505
1555.7600, -44.451
1555.7700, -44.378
1555.7800, -44.159
1555.7900, -44.101
1555.8000, -44.140
1555.8100, -44.176
1555.8200, -44.028
1555.8300, -44.086
1555.8400, -44.131
1555.8500, -44.237
1555.8600, -44.374
1555.8700, -44.472
1555.8800, -44.566
1555.8900, -44.674
1555.9000, -44.835
1555.9100, -44.890
1555.9200, -45.067
1555.9300, -45.254
1555.9400, -45.459
1555.9500, -45.629
1555.9600, -45.740
1555.9700, -45.940
1555.9800, -46.043
1555.9900, -46.295
1556.0000, -46.541
1556.0100, -46.825
1556.0200, -46.926
1556.0300, -47.042
1556.0400, -47.201
1556.0500, -47.462
1556.0600, -47.575
1556.0700, -47.728
1556.0800, -47.794
1556.0900, -47.874
1556.1000, -48.211
1556.1100, -48.292
1556.1200, -48.371
1556.1300, -48.544
1556.1400, -48.641
1556.1500, -48.665
1556.1600, -48.782
1556.1700, -48.968
1556.1800, -49.036
1556.1900, -49.184
1556.2000, -49.231
1556.2100, -49.292
1556.2200, -49.493
1556.2300, -49.523
1556.2400, -49.611
1556.2500, -49.671
1556.2600, -49.713
1556.2700, -49.938
1556.2800, -49.897
1556.2900, -49.959
1556.3000, -49.901
1556.3100, -49.987
1556.3200, -50.182
1556.3300, -50.219
1556.3400, -50.266
1556.3500, -50.296
1556.3600, -50.225
1556.3700, -50.385
1556.3800, -50.339
1556.3900, -50.481
1556.4000, -50.596
1556.4100, -50.561
1556.4200, -50.500
1556.4300, -50.579
1556.4400, -50.682
1556.4500, -50.748
1556.4600, -50.694
1556.4700, -50.766
1556.4800, -50.725
1556.4900, -50.748
1556.5000, -50.686
1556.5100, -50.785
1556.5200, -50.929
1556.5300, -50.954
1556.5400, -50.965
1556.5500, -50.974
1556.5600, -50.927
1556.5700, -51.028
1556.5800, -51.053
1556.5900, -51.072
1556.6000, -51.077
1556.6100, -51.082
1556.6200, -51.116
1556.6300, -51.177
1556.6400, -51.094
1556.6500, -51.211
1556.6600, -51.119
1556.6700, -51.113
1556.6800, -51.283
1556.6900, -51.137
1556.7000, -51.101
1556.7100, -51.144
1556.7200, -51.412
1556.7300, -51.267
1556.7400, -51.268
1556.7500, -51.165
1556.7600, -51.315
1556.7700, -51.239
1556.7800, -51.184
1556.7900, -51.244
1556.8000, -51.262
1556.8100, -51.335
1556.8200, -51.508
1556.8300, -51.277
1556.8400, -51.276
1556.8500, -51.311
1556.8600, -51.380
1556.8700, -51.307
1556.8800, -51.330
1556.8900, -51.340
1556.9000, -51.407
1556.9100, -51.345
1556.9200, -51.237
1556.9300, -51.246
1556.9400, -51.405
1556.9500, -51.344
1556.9600, -51.304
1556.9700, -51.443
1556.9800, -51.409
1556.9900, -51.431
1557.0000, -51.218
1557.0100, -51.429
1557.0200, -51.385
1557.0300, -51.450
1557.0400, -51.282
1557.0500, -51.336
1557.0600, -51.376
1557.0700, -51.372
1557.0800, -51.217
1557.0900, -51.401
1557.1000, -51.435
1557.1100, -51.328
1557.1200, -51.244
1557.1300, -51.371
1557.1400, -51.258
1557.1500, -51.194
1557.1600, -51.189
1557.1700, -51.238
1557.1800, -51.430
1557.1900, -51.305
1557.2000, -51.083
1557.2100, -51.139
1557.2200, -51.276
1557.2300, -51.256
1557.2400, -51.287
1557.2500, -51.308
1557.2600, -51.176
1557.2700, -51.233
1557.2800, -51.236
1557.2900, -51.172
1557.3000, -51.329
1557.3100, -51.279
1557.3200, -51.212
1557.3300, -51.012
1557.3400, -51.127
1557.3500, -51.185
1557.3600, -51.060
1557.3700, -51.194
1557.3800, -51.160
1557.3900, -51.249
1557.4000, -51.001
1557.4100, -51.101
1557.4200, -51.192
1557.4300, -50.990
1557.4400, -50.913
1557.4500, -51.046
1557.4600, -51.165
1557.4700, -51.031
1557.4800, -51.001
1557.4900, -51.034
1557.5000, -51.092
1557.5100, -50.988
1557.5200, -50.917
1557.5300, -50.984
1557.5400, -51.103
1557.5500, -50.967
1557.5600, -50.811
1557.5700, -50.813
1557.5800, -50.943
1557.5900, -51.148
1557.6000, -50.992
1557.6100, -50.798
1557.6200, -50.697
1557.6300, -50.821
1557.6400, -51.062
1557.6500, -50.867
1557.6600, -50.798
1557.6700, -50.742
1557.6800, -50.878
1557.6900, -50.854
1557.7000, -50.764
1557.7100, -50.802
1557.7200, -50.687
1557.7300, -50.782
1557.7400, -50.799
1557.7500, -50.857
1557.7600, -50.824
1557.7700, -50.646
1557.7800, -50.664
1557.7900, -50.664
1557.8000, -50.819
1557.8100, -50.638
1557.8200, -50.436
1557.8300, -50.610
1557.8400, -50.602
1557.8500, -50.656
1557.8600, -50.615
1557.8700, -50.521
1557.8800, -50.496
1557.8900, -50.629
1557.9000, -50.696
1557.9100, -50.543
1557.9200, -50.476
1557.9300, -50.433
1557.9400, -50.502
1557.9500, -50.550
1557.9600, -50.449
1557.9700, -50.310
1557.9800, -50.446
1557.9900, -50.476
1558.0000, -50.316
1558.0100, -50.368
1558.0200, -50.460
1558.0300, -50.536
1558.0400, -50.261
1558.0500, -50.241
1558.0600, -50.423
1558.0700, -50.301
1558.0800, -50.247
1558.0900, -50.336
1558.1000, -50.265
1558.1100, -50.190
1558.1200, -50.148
1558.1300, -50.303
1558.1400, -50.312
1558.1500, -50.202
1558.1600, -50.110
1558.1700, -50.151
1558.1800, -50.244
1558.1900, -50.129
1558.2000, -50.067
1558.2100, -50.097
1558.2200, -50.137
1558.2300, -50.102
1558.2400, -49.955
1558.2500, -50.004
1558.2600, -49.990
1558.2700, -50.166
1558.2800, -50.112
1558.2900, -50.023
1558.3000, -50.074
1558.3100, -50.001
1558.3200, -49.823
1558.3300, -49.943
1558.3400, -50.011
1558.3500, -50.039
1558.3600, -49.844
1558.3700, -49.825
1558.3800, -49.895
1558.3900, -49.872
1558.4000, -49.929
1558.4100, -49.787
1558.4200, -49.836
1558.4300, -49.827
1558.4400, -49.810
1558.4500, -49.908
1558.4600, -49.759
1558.4700, -49.731
1558.4800, -49.623
1558.4900, -49.755
1558.5000, -49.822
1558.5100, -49.773
1558.5200, -49.675
1558.5300, -49.660
1558.5400, -49.693
1558.5500, -49.500
1558.5600, -49.663
1558.5700, -49.660
1558.5800, -49.750
1558.5900, -49.698
1558.6000, -49.657
1558.6100, -49.554
1558.6200, -49.549
1558.6300, -49.537
1558.6400, -49.715
1558.6500, -49.488
1558.6600, -49.449
1558.6700, -49.445
1558.6800, -49.585
1558.6900, -49.457
1558.7000, -49.301
1558.7100, -49.318
1558.7200, -49.453
1558.7300, -49.584
1558.7400, -49.440
1558.7500, -49.290
1558.7600, -49.349
1558.7700, -49.444
1558.7800, -49.380
1558.7900, -49.373
1558.8000, -49.444
1558.8100, -49.281
1558.8200, -49.298
1558.8300, -49.269
1558.8400, -49.224
1558.8500, -49.337
1558.8600, -49.299
1558.8700, -49.131
1558.8800, -49.162
1558.8900, -49.254
1558.9000, -49.297
1558.9100, -49.030
1558.9200, -48.987
1558.9300, -49.063
1558.9400, -49.233
1558.9500, -49.322
1558.9600, -49.160
1558.9700, -49.034
1558.9800, -48.925
1558.9900, -48.984
1559.0000, -49.157
1559.0100, -49.312
1559.0200, -49.068
1559.0300, -48.900
1559.0400, -48.938
1559.0500, -49.073
1559.0600, -49.075
1559.0700, -48.969
1559.0800, -48.892
1559.0900, -48.941
1559.1000, -49.052
1559.1100, -48.982
1559.1200, -49.009
1559.1300, -48.860
1559.1400, -48.974
1559.1500, -48.994
1559.1600, -48.860
1559.1700, -48.884
1559.1800, -48.860
1559.1900, -49.047
1559.2000, -48.851
1559.2100, -48.874
1559.2200, -48.816
1559.2300, -48.868
1559.2400, -48.861
1559.2500, -48.813
1559.2600, -48.763
1559.2700, -48.747
1559.2800, -48.859
1559.2900, -48.781
1559.3000, -48.795
1559.3100, -48.852
1559.3200, -48.731
1559.3300, -48.796
1559.3400, -48.682
1559.3500, -48.649
1559.3600, -48.779
1559.3700, -48.771
1559.3800, -48.827
1559.3900, -48.717
1559.4000, -48.717
1559.4100, -48.897
1559.4200, -48.840
1559.4300, -48.655
1559.4400, -48.575
1559.4500, -48.740
1559.4600, -48.864
1559.4700, -48.871
1559.4800, -48.744
1559.4900, -48.485
1559.5000, -48.690
1559.5100, -48.848
1559.5200, -48.781
1559.5300, -48.648
1559.5400, -48.584
1559.5500, -48.802
1559.5600, -48.696
1559.5700, -48.722
1559.5800, -48.688
1559.5900, -48.555
1559.6000, -48.710
1559.6100, -48.704
1559.6200, -48.759
1559.6300, -48.709
1559.6400, -48.582
1559.6500, -48.613
1559.6600, -48.662
1559.6700, -48.782
1559.6800, -48.882
1559.6900, -48.648
1559.7000, -48.570
1559.7100, -48.643
1559.7200, -49.008
1559.7300, -48.895
1559.7400, -48.722
1559.7500, -48.516
1559.7600, -48.604
1559.7700, -48.942
1559.7800, -49.137
1559.7900, -48.827
1559.8000, -48.690
1559.8100, -48.636
1559.8200, -48.965
1559.8300, -49.115
1559.8400, -48.918
1559.8500, -48.645
1559.8600, -48.833
1559.8700, -49.020
1559.8800, -49.157
1559.8900, -49.045
1559.9000, -48.835
1559.9100, -48.936
1559.9200, -49.101
1559.9300, -49.037
1559.9400, -49.056
1559.9500, -49.050
1559.9600, -49.117
1559.9700, -49.067
1559.9800, -49.046
1559.9900, -49.166
1560.0000, -49.132
1560.0100, -49.261
1560.0200, -49.203
1560.0300, -49.216
1560.0400, -49.432
1560.0500, -49.340
1560.0600, -49.338
1560.0700, -49.365
1560.0800, -49.551
1560.0900, -49.680
1560.1000, -49.521
1560.1100, -49.483
1560.1200, -49.624
1560.1300, -49.803
1560.1400, -49.933
1560.1500, -49.787
1560.1600, -49.745
1560.1700, -49.818
1560.1800, -50.130
1560.1900, -50.236
1560.2000, -50.134
1560.2100, -49.910
1560.2200, -50.078
1560.2300, -50.396
1560.2400, -50.489
1560.2500, -50.402
1560.2600, -50.321
1560.2700, -50.344
1560.2800, -50.806
1560.2900, -50.798
1560.3000, -50.725
1560.3100, -50.686
1560.3200, -50.884
1560.3300, -50.926
1560.3400, -51.050
1560.3500, -50.972
1560.3600, -50.827
1560.3700, -50.807
1560.3800, -50.910
1560.3900, -50.919
1560.4000, -50.638
1560.4100, -50.454
1560.4200, -50.448
1560.4300, -50.113
1560.4400, -50.117
1560.4500, -49.606
1560.4600, -49.365
1560.4700, -48.800
1560.4800, -48.333
1560.4900, -47.706
1560.5000, -46.984
1560.5100, -46.157
1560.5200, -45.581
1560.5300, -44.937
1560.5400, -44.665
1560.5500, -43.970
1560.5600, -43.677
1560.5700, -42.886
1560.5800, -42.382
1560.5900, -41.578
1560.6000, -40.929
1560.6100, -40.282
1560.6200, -38.772
1560.6300, -37.223
1560.6400, -36.376
1560.6500, -36.479
1560.6600, -36.096
1560.6700, -35.894
1560.6800, -35.910
1560.6900, -35.325
1560.7000, -35.293
1560.7100, -34.875
1560.7200, -33.522
1560.7300, -32.245
1560.7400, -31.460
1560.7500, -30.650
1560.7600, -29.921
1560.7700, -28.885
1560.7800, -27.973
1560.7900, -28.054
1560.8000, -28.790
1560.8100, -29.122
1560.8200, -29.111
1560.8300, -28.654
1560.8400, -28.381
1560.8500, -27.731
1560.8600, -26.115
1560.8700, -24.239
1560.8800, -22.895
1560.8900, -22.632
1560.9000, -23.057
1560.9100, -24.471
1560.9200, -24.763
1560.9300, -25.292
1560.9400, -25.958
1560.9500, -26.702
1560.9600, -27.774
1560.9700, -27.556
1560.9800, -27.164
1560.9900, -26.671
1561.0000, -26.130
1561.0100, -25.926
1561.0200, -25.337
1561.0300, -25.932
1561.0400, -26.931
1561.0500, -28.309
1561.0600, -29.765
1561.0700, -30.473
1561.0800, -30.919
1561.0900, -31.341
1561.1000, -31.414
1561.1100, -31.248
1561.1200, -31.265
1561.1300, -31.411
1561.1400, -31.796
1561.1500, -32.091
1561.1600, -32.068
1561.1700, -32.669
1561.1800, -33.388
1561.1900, -34.181
1561.2000, -34.743
1561.2100, -35.107
1561.2200, -35.326
1561.2300, -35.500
1561.2400, -35.721
1561.2500, -35.743
1561.2600, -36.021
1561.2700, -36.125
1561.2800, -36.268
1561.2900, -36.410
1561.3000, -36.588
1561.3100, -36.878
1561.3200, -37.007
1561.3300, -36.978
1561.3400, -37.048
1561.3500, -37.149
1561.3600, -37.434
1561.3700, -37.496
1561.3800, -37.511
1561.3900, -37.548
1561.4000, -37.577
1561.4100, -37.835
1561.4200, -37.812
1561.4300, -37.767
1561.4400, -37.842
1561.4500, -37.816
1561.4600, -37.934
1561.4700, -38.031
1561.4800, -38.055
1561.4900, -38.116
1561.5000, -38.034
1561.5100, -38.136
1561.5200, -38.019
1561.5300, -38.196
1561.5400, -38.320
1561.5500, -38.228
1561.5600, -38.396
1561.5700, -38.309
1561.5800, -38.545
1561.5900, -38.693
1561.6000, -38.470
1561.6100, -38.452
1561.6200, -38.374
1561.6300, -38.589
1561.6400, -38.397
1561.6500, -38.394
1561.6600, -38.526
1561.6700, -38.555
1561.6800, -38.851
1561.6900, -38.600
1561.7000, -38.495
1561.7100, -38.565
1561.7200, -38.591
1561.7300, -38.609
1561.7400, -38.486
1561.7500, -38.612
1561.7600, -38.595
1561.7700, -38.796
1561.7800, -38.800
1561.7900, -38.540
1561.8000, -38.536
1561.8100, -38.760
1561.8200, -38.888
1561.8300, -38.681
1561.8400, -38.523
1561.8500, -38.595
1561.8600, -38.765
1561.8700, -38.831
1561.8800, -38.703
1561.8900, -38.541
1561.9000, -38.508
1561.9100, -38.707
1561.9200, -39.054
1561.9300, -38.786
1561.9400, -38.531
1561.9500, -38.592
1561.9600, -38.733
1561.9700, -38.884
1561.9800, -38.755
1561.9900, -38.502
1562.0000, -38.462
1562.0100, -38.634
1562.0200, -38.792
1562.0300, -38.556
1562.0400, -38.602
1562.0500, -38.627
1562.0600, -38.750
1562.0700, -38.745
1562.0800, -38.703
1562.0900, -38.705
1562.1000, -38.553
1562.1100, -38.737
1562.1200, -38.548
1562.1300, -38.589
1562.1400, -38.822
1562.1500, -38.720
1562.1600, -38.543
1562.1700, -38.443
1562.1800, -38.654
1562.1900, -38.946
1562.2000, -38.628
1562.2100, -38.318
1562.2200, -38.222
1562.2300, -38.555
1562.2400, -39.048
1562.2500, -38.841
1562.2600, -38.313
1562.2700, -38.242
1562.2800, -38.434
1562.2900, -38.855
1562.3000, -38.595
1562.3100, -38.383
1562.3200, -38.268
1562.3300, -38.339
1562.3400, -38.636
1562.3500, -38.512
1562.3600, -38.499
1562.3700, -38.203
1562.3800, -38.283
1562.3900, -38.544
1562.4000, -38.530
1562.4100, -38.393
1562.4200, -38.200
1562.4300, -38.063
1562.4400, -38.379
1562.4500, -38.742
1562.4600, -38.495
1562.4700, -38.073
1562.4800, -38.129
1562.4900, -38.422
1562.5000, -38.802
1562.5100, -38.385
1562.5200, -37.981
1562.5300, -37.963
1562.5400, -38.188
1562.5500, -38.446
1562.5600, -38.309
1562.5700, -38.124
1562.5800, -37.915
1562.5900, -38.067
1562.6000, -38.310
1562.6100, -38.330
1562.6200, -37.886
1562.6300, -37.876
1562.6400, -38.128
1562.6500, -38.284
1562.6600, -38.219
1562.6700, -37.899
1562.6800, -37.869
1562.6900, -37.968
1562.7000, -38.215
1562.7100, -38.216
1562.7200, -38.034
1562.7300, -37.654
1562.7400, -37.787
1562.7500, -38.001
1562.7600, -38.099
1562.7700, -37.954
1562.7800, -37.780
1562.7900, -37.585
1562.8000, -37.779
1562.8100, -37.990
1562.8200, -37.969
1562.8300, -37.597
1562.8400, -37.507
1562.8500, -37.574
1562.8600, -37.735
1562.8700, -37.926
1562.8800, -37.713
1562.8900, -37.389
1562.9000, -37.338
1562.9100, -37.581
1562.9200, -37.690
1562.9300, -37.480
1562.9400, -37.502
1562.9500, -37.545
1562.9600, -37.456
1562.9700, -37.772
1562.9800, -37.522
1562.9900, -37.215
1563.0000, -37.244
1563.0100, -37.454
1563.0200, -37.731
1563.0300, -37.504
1563.0400, -37.241
1563.0500, -37.078
1563.0600, -37.315
1563.0700, -37.418
1563.0800, -37.250
1563.0900, -37.119
1563.1000, -37.154
1563.1100, -37.330
1563.1200, -37.381
1563.1300, -37.134
1563.1400, -37.012
1563.1500, -37.002
1563.1600, -37.191
1563.1700, -37.072
1563.1800, -37.052
1563.1900, -36.805
1563.2000, -36.821
1563.2100, -37.034
1563.2200, -37.041
1563.2300, -37.129
1563.2400, -36.837
1563.2500, -36.691
1563.2600, -36.732
1563.2700, -36.945
1563.2800, -36.965
1563.2900, -36.653
1563.3000, -36.449
1563.3100, -36.513
1563.3200, -36.670
1563.3300, -36.884
1563.3400, -36.323
1563.3500, -36.387
1563.3600, -36.409
1563.3700, -36.749
1563.3800, -36.478
1563.3900, -36.204
1563.4000, -36.223
1563.4100, -36.227
1563.4200, -36.516
1563.4300, -36.407
1563.4400, -36.086
1563.4500, -35.883
1563.4600, -36.099
1563.4700, -36.110
1563.4800, -35.829
1563.4900, -35.781
1563.5000, -35.799
1563.5100, -36.227
1563.5200, -35.980
1563.5300, -35.685
1563.5400, -35.593
1563.5500, -35.723
1563.5600, -36.157
1563.5700, -35.978
1563.5800, -35.695
1563.5900, -35.565
1563.6000, -35.486
1563.6100, -35.527
1563.6200, -35.970
1563.6300, -35.813
1563.6400, -35.758
1563.6500, -35.809
1563.6600, -35.655
1563.6700, -35.692
1563.6800, -35.699
1563.6900, -35.994
1563.7000, -35.827
1563.7100, -35.558
1563.7200, -35.653
1563.7300, -35.934
1563.7400, -35.893
1563.7500, -35.615
1563.7600, -35.638
1563.7700, -35.751
1563.7800, -35.687
1563.7900, -36.067
1563.8000, -35.915
1563.8100, -35.563
1563.8200, -35.547
1563.8300, -35.721
1563.8400, -35.828
1563.8500, -35.577
1563.8600, -35.665
1563.8700, -35.887
1563.8800, -35.821
1563.8900, -35.830
1563.9000, -35.514
1563.9100, -35.635
1563.9200, -35.765
1563.9300, -35.758
1563.9400, -35.735
1563.9500, -35.685
1563.9600, -35.690
1563.9700, -35.980
1563.9800, -35.842
1563.9900, -35.994
1564.0000, -35.624
1564.0100, -35.708
1564.0200, -35.812
1564.0300, -35.887
1564.0400, -35.645
1564.0500, -35.354
1564.0600, -35.591
1564.0700, -35.943
1564.0800, -35.897
1564.0900, -35.587
1564.1000, -35.321
1564.1100, -35.657
1564.1200, -35.816
1564.1300, -35.676
1564.1400, -35.655
1564.1500, -35.632
1564.1600, -35.553
1564.1700, -35.468
1564.1800, -35.467
1564.1900, -35.917
1564.2000, -35.761
1564.2100, -35.289
1564.2200, -35.196
1564.2300, -35.351
1564.2400, -35.656
1564.2500, -35.911
1564.2600, -35.514
1564.2700, -35.119
1564.2800, -35.143
1564.2900, -35.619
1564.3000, -35.670
1564.3100, -35.223
1564.3200, -35.353
1564.3300, -35.307
1564.3400, -35.330
1564.3500, -35.472
1564.3600, -35.121
1564.3700, -35.095
1564.3800, -35.199
1564.3900, -35.591
1564.4000, -35.604
1564.4100, -35.360
1564.4200, -35.221
1564.4300, -35.214
1564.4400, -35.266
1564.4500, -35.252
1564.4600, -35.144
1564.4700, -35.060
1564.4800, -34.977
1564.4900, -35.170
1564.5000, -34.997
1564.5100, -35.125
1564.5200, -35.138
1564.5300, -35.141
1564.5400, -34.891
1564.5500, -34.841
1564.5600, -34.968
1564.5700, -35.180
1564.5800, -35.013
1564.5900, -34.891
1564.6000, -34.835
1564.6100, -34.989
1564.6200, -35.219
1564.6300, -34.887
1564.6400, -34.816
1564.6500, -34.896
1564.6600, -34.839
1564.6700, -35.210
1564.6800, -35.160
1564.6900, -34.653
1564.7000, -34.803
1564.7100, -34.520
1564.7200, -34.925
1564.7300, -35.055
1564.7400, -34.791
1564.7500, -34.570
1564.7600, -34.792
1564.7700, -34.871
1564.7800, -34.962
1564.7900, -34.771
1564.8000, -34.479
1564.8100, -34.374
1564.8200, -34.726
1564.8300, -34.665
1564.8400, -34.596
1564.8500, -34.592
1564.8600, -34.452
1564.8700, -34.448
1564.8800, -34.563
1564.8900, -34.841
1564.9000, -34.484
1564.9100, -34.368
1564.9200, -34.066
1564.9300, -34.544
1564.9400, -34.953
1564.9500, -34.460
1564.9600, -34.412
1564.9700, -34.409
1564.9800, -34.491
1564.9900, -34.646
1565.0000, -34.228
1565.0100, -34.357
1565.0200, -34.254
1565.0300, -34.381
1565.0400, -34.385
1565.0500, -34.183
1565.0600, -34.246
1565.0700, -34.413
1565.0800, -34.274
1565.0900, -34.023
1565.1000, -34.263
1565.1100, -34.321
1565.1200, -34.187
1565.1300, -33.825
1565.1400, -33.918
1565.1500, -34.285
1565.1600, -33.878
1565.1700, -34.016
1565.1800, -34.172
1565.1900, -34.130
1565.2000, -34.188
1565.2100, -34.245
1565.2200, -34.310
1565.2300, -33.885
1565.2400, -34.228
1565.2500, -34.566
1565.2600, -34.082
1565.2700, -33.850
1565.2800, -33.786
1565.2900, -33.947
1565.3000, -34.263
1565.3100, -33.917
1565.3200, -33.563
1565.3300, -33.443
1565.3400, -33.643
1565.3500, -33.935
1565.3600, -33.663
1565.3700, -33.389
1565.3800, -33.637
1565.3900, -33.917
1565.4000, -34.224
1565.4100, -33.635
1565.4200, -33.592
1565.4300, -33.378
1565.4400, -33.634
1565.4500, -33.826
1565.4600, -33.839
1565.4700, -33.626
1565.4800, -33.385
1565.4900, -33.262
1565.5000, -33.479
1565.5100, -33.534
1565.5200, -33.408
1565.5300, -33.498
1565.5400, -33.668
1565.5500, -33.378
1565.5600, -33.327
1565.5700, -33.658
1565.5800, -33.304
1565.5900, -33.135
1565.6000, -33.247
1565.6100, -33.046
1565.6200, -33.370
1565.6300, -33.494
1565.6400, -33.602
1565.6500, -33.064
1565.6600, -33.040
1565.6700, -33.066
1565.6800, -33.198
1565.6900, -33.183
1565.7000, -33.397
1565.7100, -33.570
1565.7200, -33.116
1565.7300, -33.099
1565.7400, -33.258
1565.7500, -33.055
1565.7600, -33.185
1565.7700, -33.733
1565.7800, -32.860
1565.7900, -33.033
1565.8000, -33.068
1565.8100, -33.335
1565.8200, -33.626
1565.8300, -32.857
1565.8400, -32.553
1565.8500, -32.726
1565.8600, -33.222
1565.8700, -33.228
1565.8800, -32.722
1565.8900, -32.649
1565.9000, -32.999
1565.9100, -33.411
1565.9200, -32.759
1565.9300, -32.535
1565.9400, -32.663
1565.9500, -33.162
1565.9600, -33.267
1565.9700, -32.794
1565.9800, -32.817
1565.9900, -32.799
1566.0000, -32.838
1566.0100, -32.681
1566.0200, -32.690
1566.0300, -32.956
1566.0400, -32.788
1566.0500, -32.727
1566.0600, -32.616
1566.0700, -32.513
1566.0800, -32.496
1566.0900, -32.427
1566.1000, -32.537
1566.1100, -32.503
1566.1200, -32.520
1566.1300, -32.709
1566.1400, -33.115
1566.1500, -32.290
1566.1600, -32.098
1566.1700, -32.359
1566.1800, -32.901
1566.1900, -32.282
1566.2000, -32.365
1566.2100, -32.439
1566.2200, -32.431
1566.2300, -32.448
1566.2400, -32.451
1566.2500, -32.434
1566.2600, -32.402
1566.2700, -32.421
1566.2800, -32.909
1566.2900, -32.497
1566.3000, -32.161
1566.3100, -32.304
1566.3200, -31.937
1566.3300, -32.090
1566.3400, -32.123
1566.3500, -32.515
1566.3600, -32.562
1566.3700, -32.178
1566.3800, -31.979
1566.3900, -31.982
1566.4000, -32.324
1566.4100, -32.222
1566.4200, -32.057
1566.4300, -31.905
1566.4400, -32.018
1566.4500, -32.156
1566.4600, -31.956
1566.4700, -32.218
1566.4800, -32.427
1566.4900, -32.554
1566.5000, -32.111
1566.5100, -31.889
1566.5200, -31.677
1566.5300, -32.197
1566.5400, -32.489
1566.5500, -31.929
1566.5600, -31.649
1566.5700, -31.847
1566.5800, -31.958
1566.5900, -32.133
1566.6000, -32.084
1566.6100, -31.765
1566.6200, -31.737
1566.6300, -31.837
1566.6400, -32.198
1566.6500, -31.903
1566.6600, -31.791
1566.6700, -31.787
1566.6800, -31.928
1566.6900, -31.793
1566.7000, -31.521
1566.7100, -31.618
1566.7200, -31.629
1566.7300, -31.761
1566.7400, -31.779
1566.7500, -31.626
1566.7600, -31.776
1566.7700, -31.807
1566.7800, -31.969
1566.7900, -31.412
1566.8000, -31.214
1566.8100, -31.223
1566.8200, -31.892
1566.8300, -32.074
1566.8400, -31.889
1566.8500, -31.617
1566.8600, -32.138
1566.8700, -31.994
1566.8800, -31.804
1566.8900, -31.472
1566.9000, -31.479
1566.9100, -31.669
1566.9200, -31.597
1566.9300, -31.425
1566.9400, -31.294
1566.9500, -31.421
1566.9600, -31.842
1566.9700, -31.695
1566.9800, -31.462
1566.9900, -31.761
1567.0000, -31.610
1567.0100, -31.221
1567.0200, -31.188
1567.0300, -31.375
1567.0400, -31.468
1567.0500, -31.996
1567.0600, -31.696
1567.0700, -31.165
1567.0800, -31.135
1567.0900, -31.172
1567.1000, -31.558
1567.1100, -31.452
1567.1200, -31.436
1567.1300, -31.222
1567.1400, -31.282
1567.1500, -31.193
1567.1600, -31.162
1567.1700, -31.556
1567.1800, -31.510
1567.1900, -31.265
1567.2000, -31.276
1567.2100, -31.070
1567.2200, -31.207
1567.2300, -31.230
1567.2400, -31.349
1567.2500, -31.146
1567.2600, -31.080
1567.2700, -31.189
1567.2800, -30.958
1567.2900, -31.072
1567.3000, -30.944
1567.3100, -30.937
1567.3200, -30.881
1567.3300, -30.825
1567.3400, -30.991
1567.3500, -30.996
1567.3600, -30.730
1567.3700, -30.610
1567.3800, -30.826
1567.3900, -30.645
1567.4000, -30.403
1567.4100, -30.584
1567.4200, -30.794
1567.4300, -31.162
1567.4400, -31.014
1567.4500, -31.137
1567.4600, -30.948
1567.4700, -31.214
1567.4800, -31.299
1567.4900, -30.696
1567.5000, -31.055
1567.5100, -31.003
1567.5200, -30.913
1567.5300, -30.485
1567.5400, -30.606
1567.5500, -31.050
1567.5600, -30.576
1567.5700, -30.851
1567.5800, -30.545
1567.5900, -30.642
1567.6000, -30.857
1567.6100, -30.875
1567.6200, -31.100
1567.6300, -30.486
1567.6400, -30.948
1567.6500, -30.700
1567.6600, -30.819
1567.6700, -30.838
1567.6800, -30.658
1567.6900, -30.817
1567.7000, -31.105
1567.7100, -30.775
1567.7200, -30.435
1567.7300, -30.177
1567.7400, -30.466
1567.7500, -31.126
1567.7600, -30.865
1567.7700, -30.262
1567.7800, -30.274
1567.7900, -30.669
1567.8000, -30.978
1567.8100, -30.655
1567.8200, -30.630
1567.8300, -30.416
1567.8400, -30.264
1567.8500, -30.353
1567.8600, -30.463
1567.8700, -30.320
1567.8800, -30.618
1567.8900, -30.741
1567.9000, -30.799
1567.9100, -30.160
1567.9200, -30.514
1567.9300, -30.510
1567.9400, -30.366
1567.9500, -30.568
1567.9600, -30.669
1567.9700, -30.487
1567.9800, -30.737
1567.9900, -30.530
1568.0000, -30.279
1568.0100, -30.829
1568.0200, -30.611
1568.0300, -30.448
1568.0400, -30.392
1568.0500, -30.296
1568.0600, -30.230
1568.0700, -30.130
1568.0800, -29.955
1568.0900, -29.967
1568.1000, -30.470
1568.1100, -30.662
1568.1200, -30.164
1568.1300, -30.573
1568.1400, -30.854
1568.1500, -30.475
1568.1600, -30.365
1568.1700, -30.269
1568.1800, -30.183
1568.1900, -30.479
1568.2000, -30.721
1568.2100, -30.321
1568.2200, -30.133
1568.2300, -30.385
1568.2400, -30.526
1568.2500, -30.795
1568.2600, -30.215
1568.2700, -30.111
1568.2800, -30.224
1568.2900, -30.094
1568.3000, -30.215
1568.3100, -30.132
1568.3200, -29.946
1568.3300, -29.902
1568.3400, -29.895
1568.3500, -29.795
1568.3600, -29.929
1568.3700, -30.097
1568.3800, -30.103
1568.3900, -30.493
1568.4000, -30.257
1568.4100, -29.915
1568.4200, -29.977
1568.4300, -29.941
1568.4400, -30.359
1568.4500, -29.872
1568.4600, -29.687
1568.4700, -30.046
1568.4800, -30.210
1568.4900, -29.901
1568.5000, -29.811
1568.5100, -30.135
1568.5200, -30.325
1568.5300, -30.237
1568.5400, -30.210
1568.5500, -29.924
1568.5600, -29.668
1568.5700, -30.197
1568.5800, -30.401
1568.5900, -30.040
1568.6000, -29.894
1568.6100, -30.225
1568.6200, -29.824
1568.6300, -30.006
1568.6400, -29.851
1568.6500, -30.311
1568.6600, -30.589
1568.6700, -30.114
1568.6800, -29.579
1568.6900, -29.917
1568.7000, -29.847
1568.7100, -30.311
1568.7200, -30.010
1568.7300, -29.907
1568.7400, -29.828
1568.7500, -29.779
1568.7600, -29.982
1568.7700, -30.196
1568.7800, -29.701
1568.7900, -30.357
1568.8000, -29.867
1568.8100, -29.724
1568.8200, -29.772
1568.8300, -29.635
1568.8400, -29.924
1568.8500, -30.249
1568.8600, -29.955
1568.8700, -29.911
1568.8800, -30.622
1568.8900, -30.588
1568.9000, -29.887
1568.9100, -29.558
1568.9200, -29.739
1568.9300, -29.974
1568.9400, -30.238
1568.9500, -29.775
1568.9600, -29.436
1568.9700, -29.367
1568.9800, -30.004
1568.9900, -30.011
1569.0000, -29.567
1569.0100, -29.797
1569.0200, -29.606
1569.0300, -29.925
1569.0400, -29.855
1569.0500, -29.558
1569.0600, -29.740
1569.0700, -29.844
1569.0800, -29.708
1569.0900, -29.806
1569.1000, -29.509
1569.1100, -30.272
1569.1200, -30.215
1569.1300, -29.910
1569.1400, -29.816
1569.1500, -29.888
1569.1600, -30.226
1569.1700, -30.071
1569.1800, -30.059
1569.1900, -29.549
1569.2000, -29.857
1569.2100, -29.952
1569.2200, -30.147
1569.2300, -30.180
1569.2400, -29.654
1569.2500, -30.019
1569.2600, -29.444
1569.2700, -29.663
1569.2800, -29.824
1569.2900, -29.354
1569.3000, -29.761
1569.3100, -29.802
1569.3200, -29.605
1569.3300, -29.445
1569.3400, -30.039
1569.3500, -30.393
1569.3600, -29.944
1569.3700, -29.532
1569.3800, -29.840
1569.3900, -30.114
1569.4000, -30.118
1569.4100, -30.104
1569.4200, -29.580
1569.4300, -29.536
1569.4400, -29.692
1569.4500, -29.688
1569.4600, -29.787
1569.4700, -29.633
1569.4800, -29.769
1569.4900, -30.393
1569.5000, -29.718
1569.5100, -29.780
1569.5200, -29.967
1569.5300, -29.697
1569.5400, -29.522
1569.5500, -29.641
1569.5600, -29.584
1569.5700, -30.069
1569.5800, -30.018
1569.5900, -29.651
1569.6000, -29.529
1569.6100, -29.464
1569.6200, -29.854
1569.6300, -29.822
1569.6400, -29.562
1569.6500, -29.674
1569.6600, -29.671
1569.6700, -30.131
1569.6800, -30.210
1569.6900, -29.514
1569.7000, -29.652
1569.7100, -29.850
1569.7200, -30.321
1569.7300, -30.062
1569.7400, -29.486
1569.7500, -29.520
1569.7600, -29.619
1569.7700, -29.661
1569.7800, -29.790
1569.7900, -29.337
1569.8000, -29.443
1569.8100, -29.872
1569.8200, -29.855
1569.8300, -30.081
1569.8400, -30.155
1569.8500, -29.654
1569.8600, -29.774
1569.8700, -29.633
1569.8800, -29.766
1569.8900, -29.731
1569.9000, -30.109
1569.9100, -30.099
1569.9200, -29.576
1569.9300, -29.335
1569.9400, -29.572
1569.9500, -30.135
1569.9600, -30.323
1569.9700, -30.146
1569.9800, -29.795
1569.9900, -29.995
1570.0000, -30.354
1570.0100, -29.833
1570.0200, -30.028
1570.0300, -29.938
1570.0400, -30.052
1570.0500, -29.550
1570.0600, -29.647
1570.0700, -30.141
1570.0800, -29.784
1570.0900, -29.813
1570.1000, -30.013
1570.1100, -29.670
1570.1200, -29.453
1570.1300, -29.745
1570.1400, -29.907
1570.1500, -29.921
1570.1600, -29.785
1570.1700, -29.834
1570.1800, -29.594
1570.1900, -29.883
1570.2000, -29.688
1570.2100, -29.894
1570.2200, -29.814
1570.2300, -29.724
1570.2400, -30.056
1570.2500, -29.883
1570.2600, -30.061
1570.2700, -29.919
1570.2800, -30.201
1570.2900, -29.865
1570.3000, -30.061
1570.3100, -30.067
1570.3200, -29.692
1570.3300, -29.598
1570.3400, -30.044
1570.3500, -30.017
1570.3600, -30.241
1570.3700, -30.483
1570.3800, -29.791
1570.3900, -29.879
1570.4000, -30.186
1570.4100, -29.730
1570.4200, -29.720
1570.4300, -29.765
1570.4400, -29.800
1570.4500, -29.754
1570.4600, -29.949
1570.4700, -29.860
1570.4800, -29.619
1570.4900, -29.758
1570.5000, -30.056
1570.5100, -29.952
1570.5200, -29.551
1570.5300, -29.729
1570.5400, -30.169
1570.5500, -30.556
1570.5600, -29.672
1570.5700, -29.990
1570.5800, -30.103
1570.5900, -29.953
1570.6000, -29.893
1570.6100, -30.021
1570.6200, -29.674
1570.6300, -29.991
1570.6400, -29.807
1570.6500, -30.000
1570.6600, -30.129
1570.6700, -29.728
1570.6800, -29.866
1570.6900, -30.079
1570.7000, -30.489
1570.7100, -30.865
1570.7200, -30.912
1570.7300, -30.254
1570.7400, -30.370
1570.7500, -30.225
1570.7600, -29.984
1570.7700, -29.814
1570.7800, -29.869
1570.7900, -30.490
1570.8000, -30.442
1570.8100, -30.095
1570.8200, -30.319
1570.8300, -30.575
1570.8400, -30.369
1570.8500, -30.543
1570.8600, -30.558
1570.8700, -30.518
1570.8800, -30.264
1570.8900, -30.393
1570.9000, -30.203
1570.9100, -30.272
1570.9200, -30.687
1570.9300, -30.595
1570.9400, -30.429
1570.9500, -30.607
1570.9600, -30.815
1570.9700, -30.447
1570.9800, -29.909
1570.9900, -30.323
1571.0000, -30.123
1571.0100, -30.828
1571.0200, -30.649
1571.0300, -30.206
1571.0400, -30.273
1571.0500, -30.660
1571.0600, -30.945
1571.0700, -30.672
1571.0800, -29.930
1571.0900, -30.002
1571.1000, -30.310
1571.1100, -30.315
1571.1200, -30.193
1571.1300, -30.722
1571.1400, -30.701
1571.1500, -30.991
1571.1600, -30.639
1571.1700, -30.149
1571.1800, -30.234
1571.1900, -30.794
1571.2000, -30.366
1571.2100, -30.690
1571.2200, -30.223
1571.2300, -30.208
1571.2400, -30.254
1571.2500, -30.537
1571.2600, -30.484
1571.2700, -30.347
1571.2800, -30.266
1571.2900, -30.445
1571.3000, -30.397
1571.3100, -30.146
1571.3200, -30.078
1571.3300, -30.341
1571.3400, -30.316
1571.3500, -30.223
1571.3600, -30.581
1571.3700, -30.979
1571.3800, -30.619
1571.3900, -30.548
1571.4000, -30.493
1571.4100, -30.940
1571.4200, -31.118
1571.4300, -30.974
1571.4400, -30.498
1571.4500, -30.353
1571.4600, -30.596
1571.4700, -30.976
1571.4800, -30.935
1571.4900, -30.825
1571.5000, -30.491
1571.5100, -30.538
1571.5200, -30.889
1571.5300, -31.120
1571.5400, -31.349
1571.5500, -30.715
1571.5600, -31.094
1571.5700, -31.083
1571.5800, -30.901
1571.5900, -31.247
1571.6000, -30.985
1571.6100, -30.727
1571.6200, -30.792
1571.6300, -30.676
1571.6400, -31.228
1571.6500, -31.442
1571.6600, -31.012
1571.6700, -30.598
1571.6800, -30.840
1571.6900, -30.892
1571.7000, -30.711
1571.7100, -31.500
1571.7200, -31.046
1571.7300, -30.781
1571.7400, -30.963
1571.7500, -31.285
1571.7600, -30.986
1571.7700, -30.699
1571.7800, -31.007
1571.7900, -31.430
1571.8000, -31.400
1571.8100, -31.176
1571.8200, -31.107
1571.8300, -30.899
1571.8400, -31.254
1571.8500, -30.797
1571.8600, -30.706
1571.8700, -30.872
1571.8800, -31.499
1571.8900, -31.170
1571.9000, -31.109
1571.9100, -30.955
1571.9200, -30.864
1571.9300, -31.170
1571.9400, -31.224
1571.9500, -31.229
1571.9600, -30.969
1571.9700, -31.095
1571.9800, -31.018
1571.9900, -31.701
1572.0000, -31.096
1572.0100, -30.961
1572.0200, -31.344
1572.0300, -31.203
1572.0400, -31.117
1572.0500, -31.253
1572.0600, -31.273
1572.0700, -31.319
1572.0800, -31.411
1572.0900, -31.526
1572.1000, -31.083
1572.1100, -31.146
1572.1200, -31.055
1572.1300, -31.187
1572.1400, -31.196
1572.1500, -31.581
1572.1600, -32.114
1572.1700, -31.803
1572.1800, -31.583
1572.1900, -31.229
1572.2000, -31.334
1572.2100, -31.521
1572.2200, -31.758
1572.2300, -31.574
1572.2400, -31.166
1572.2500, -31.051
1572.2600, -31.509
1572.2700, -31.308
1572.2800, -31.376
1572.2900, -31.442
1572.3000, -31.227
1572.3100, -31.427
1572.3200, -31.575
1572.3300, -31.399
1572.3400, -31.276
1572.3500, -31.564
1572.3600, -31.655
1572.3700, -32.152
1572.3800, -31.732
1572.3900, -31.582
1572.4000, -31.647
1572.4100, -31.625
1572.4200, -31.645
1572.4300, -31.843
1572.4400, -31.788
1572.4500, -31.661
1572.4600, -31.446
1572.4700, -31.701
1572.4800, -31.847
1572.4900, -31.761
1572.5000, -31.721
1572.5100, -31.818
1572.5200, -31.740
1572.5300, -31.373
1572.5400, -31.994
1572.5500, -32.003
1572.5600, -32.046
1572.5700, -31.833
1572.5800, -31.948
1572.5900, -31.932
1572.6000, -32.578
1572.6100, -32.036
1572.6200, -31.962
1572.6300, -32.016
1572.6400, -32.241
1572.6500, -32.293
1572.6600, -31.642
1572.6700, -31.774
1572.6800, -32.246
1572.6900, -32.058
1572.7000, -32.062
1572.7100, -32.398
1572.7200, -32.184
1572.7300, -32.144
1572.7400, -32.401
1572.7500, -32.235
1572.7600, -31.865
1572.7700, -32.398
1572.7800, -32.477
1572.7900, -32.349
1572.8000, -31.906
1572.8100, -31.901
1572.8200, -32.335
1572.8300, -32.637
1572.8400, -32.451
1572.8500, -32.221
1572.8600, -32.827
1572.8700, -32.477
1572.8800, -32.181
1572.8900, -32.085
1572.9000, -32.238
1572.9100, -32.783
1572.9200, -32.776
1572.9300, -32.412
1572.9400, -32.192
1572.9500, -32.335
1572.9600, -32.623
1572.9700, -32.647
1572.9800, -32.520
1572.9900, -32.251
1573.0000, -32.479
1573.0100, -32.630
1573.0200, -32.617
1573.0300, -32.626
1573.0400, -32.278
1573.0500, -32.390
1573.0600, -32.395
1573.0700, -32.246
1573.0800, -32.804
1573.0900, -32.863
1573.1000, -32.681
1573.1100, -32.415
1573.1200, -32.446
1573.1300, -32.897
1573.1400, -32.550
1573.1500, -33.017
1573.1600, -32.613
1573.1700, -32.564
1573.1800, -32.964
1573.1900, -32.977
1573.2000, -33.376
1573.2100, -33.092
1573.2200, -32.981
1573.2300, -32.750
1573.2400, -33.038
1573.2500, -32.691
1573.2600, -33.112
1573.2700, -32.839
1573.2800, -32.882
1573.2900, -33.021
1573.3000, -32.757
1573.3100, -32.963
1573.3200, -32.905
1573.3300, -32.896
1573.3400, -33.078
1573.3500, -32.941
1573.3600, -33.038
1573.3700, -33.270
1573.3800, -33.182
1573.3900, -32.970
1573.4000, -33.185
1573.4100, -33.030
1573.4200, -32.946
1573.4300, -33.282
1573.4400, -33.179
1573.4500, -33.473
1573.4600, -33.083
1573.4700, -33.529
1573.4800, -33.090
1573.4900, -33.004
1573.5000, -32.725
1573.5100, -33.000
1573.5200, -33.470
1573.5300, -33.531
1573.5400, -33.012
1573.5500, -33.874
1573.5600, -33.680
1573.5700, -33.504
1573.5800, -33.271
1573.5900, -33.362
1573.6000, -33.393
1573.6100, -33.653
1573.6200, -33.792
1573.6300, -33.197
1573.6400, -34.020
1573.6500, -33.891
1573.6600, -34.046
1573.6700, -33.974
1573.6800, -33.348
1573.6900, -33.645
1573.7000, -33.787
1573.7100, -33.824
1573.7200, -33.864
1573.7300, -33.677
1573.7400, -33.698
1573.7500, -33.571
1573.7600, -33.432
1573.7700, -33.716
1573.7800, -33.903
1573.7900, -34.185
1573.8000, -34.321
1573.8100, -34.168
1573.8200, -33.665
1573.8300, -33.611
1573.8400, -33.703
1573.8500, -33.848
1573.8600, -33.608
1573.8700, -33.555
1573.8800, -33.751
1573.8900, -33.805
1573.9000, -33.683
1573.9100, -33.895
1573.9200, -34.044
1573.9300, -34.025
1573.9400, -33.921
1573.9500, -33.701
1573.9600, -33.625
1573.9700, -34.005
1573.9800, -34.004
1573.9900, -33.992
1574.0000, -34.100
1574.0100, -33.724
1574.0200, -34.075
1574.0300, -34.120
1574.0400, -34.297
1574.0500, -34.016
1574.0600, -34.571
1574.0700, -34.754
1574.0800, -34.377
1574.0900, -34.264
1574.1000, -34.152
1574.1100, -34.103
1574.1200, -34.104
1574.1300, -34.809
1574.1400, -34.252
1574.1500, -34.427
1574.1600, -34.625
1574.1700, -34.509
1574.1800, -34.780
1574.1900, -34.536
1574.2000, -34.254
1574.2100, -34.580
1574.2200, -34.988
1574.2300, -34.744
1574.2400, -34.443
1574.2500, -34.740
1574.2600, -35.232
1574.2700, -34.984
1574.2800, -34.620
1574.2900, -34.763
1574.3000, -34.324
1574.3100, -34.619
1574.3200, -34.636
1574.3300, -34.603
1574.3400, -34.749
1574.3500, -34.783
1574.3600, -34.750
1574.3700, -34.884
1574.3800, -34.464
1574.3900, -34.783
1574.4000, -35.150
1574.4100, -35.234
1574.4200, -34.536
1574.4300, -34.904
1574.4400, -35.059
1574.4500, -35.067
1574.4600, -35.458
1574.4700, -34.725
1574.4800, -34.873
1574.4900, -34.821
1574.5000, -34.690
1574.5100, -34.794
1574.5200, -34.734
1574.5300, -35.073
1574.5400, -34.881
1574.5500, -35.195
1574.5600, -35.256
1574.5700, -34.952
1574.5800, -35.054
1574.5900, -35.183
1574.6000, -35.017
1574.6100, -35.043
1574.6200, -35.234
1574.6300, -35.246
1574.6400, -35.150
1574.6500, -35.077
1574.6600, -34.979
1574.6700, -35.200
1574.6800, -35.639
1574.6900, -35.327
1574.7000, -35.034
1574.7100, -35.592
1574.7200, -35.361
1574.7300, -35.605
1574.7400, -35.738
1574.7500, -35.330
1574.7600, -35.526
1574.7700, -35.326
1574.7800, -35.200
1574.7900, -35.315
1574.8000, -35.405
1574.8100, -35.796
1574.8200, -35.734
1574.8300, -35.729
1574.8400, -35.511
1574.8500, -35.804
1574.8600, -35.598
1574.8700, -35.476
1574.8800, -35.429
1574.8900, -35.653
1574.9000, -35.813
1574.9100, -35.642
1574.9200, -35.370
1574.9300, -35.356
1574.9400, -35.559
1574.9500, -35.929
1574.9600, -35.724
1574.9700, -35.656
1574.9800, -36.006
1574.9900, -35.633
1575.0000, -36.156
1575.0100, -36.061
1575.0200, -35.909
1575.0300, -35.743
1575.0400, -36.290
1575.0500, -36.240
1575.0600, -36.004
1575.0700, -35.619
1575.0800, -35.497
1575.0900, -35.980
1575.1000, -35.841
1575.1100, -36.213
1575.1200, -36.084
1575.1300, -36.495
1575.1400, -36.184
1575.1500, -36.140
1575.1600, -35.905
1575.1700, -35.947
1575.1800, -36.033
1575.1900, -35.971
1575.2000, -36.016
1575.2100, -36.031
1575.2200, -36.431
1575.2300, -36.504
1575.2400, -36.140
1575.2500, -35.767
1575.2600, -36.271
1575.2700, -36.270
1575.2800, -36.229
1575.2900, -35.959
1575.3000, -36.323
1575.3100, -36.524
1575.3200, -36.892
1575.3300, -36.610
1575.3400, -36.626
1575.3500, -36.498
1575.3600, -36.901
1575.3700, -36.640
1575.3800, -36.527
1575.3900, -36.167
1575.4000, -36.381
1575.4100, -36.696
1575.4200, -36.353
1575.4300, -36.017
1575.4400, -36.313
1575.4500, -36.486
1575.4600, -36.417
1575.4700, -36.578
1575.4800, -36.603
1575.4900, -36.697
1575.5000, -36.441
1575.5100, -36.549
1575.5200, -36.575
1575.5300, -36.872
1575.5400, -36.873
1575.5500, -36.644
1575.5600, -36.467
1575.5700, -36.687
1575.5800, -36.737
1575.5900, -36.728
1575.6000, -37.068
1575.6100, -36.859
1575.6200, -36.729
1575.6300, -36.736
1575.6400, -36.656
1575.6500, -36.696
1575.6600, -36.626
1575.6700, -36.708
1575.6800, -37.052
1575.6900, -36.826
1575.7000, -36.911
1575.7100, -36.854
1575.7200, -36.815
1575.7300, -37.094
1575.7400, -36.922
1575.7500, -37.095
1575.7600, -36.939
1575.7700, -37.340
1575.7800, -37.615
1575.7900, -37.203
1575.8000, -37.532
1575.8100, -36.829
1575.8200, -36.973
1575.8300, -37.277
1575.8400, -37.356
1575.8500, -37.229
1575.8600, -37.136
1575.8700, -37.407
1575.8800, -37.532
1575.8900, -37.363
1575.9000, -37.499
1575.9100, -36.862
1575.9200, -37.152
1575.9300, -37.353
1575.9400, -37.340
1575.9500, -37.299
1575.9600, -37.079
1575.9700, -37.232
1575.9800, -37.835
1575.9900, -37.754
1576.0000, -37.263
1576.0100, -36.953
1576.0200, -37.283
1576.0300, -37.376
1576.0400, -37.391
1576.0500, -37.585
1576.0600, -37.431
1576.0700, -37.673
1576.0800, -37.263
1576.0900, -37.433
1576.1000, -37.489
1576.1100, -37.769
1576.1200, -37.561
1576.1300, -37.748
1576.1400, -37.854
1576.1500, -37.939
1576.1600, -37.747
1576.1700, -37.546
1576.1800, -37.810
1576.1900, -37.764
1576.2000, -37.941
1576.2100, -37.876
1576.2200, -37.448
1576.2300, -37.587
1576.2400, -37.996
1576.2500, -38.089
1576.2600, -37.918
1576.2700, -37.565
1576.2800, -38.007
1576.2900, -37.670
1576.3000, -38.001
1576.3100, -37.903
1576.3200, -37.829
1576.3300, -37.818
1576.3400, -37.942
1576.3500, -38.074
1576.3600, -38.151
1576.3700, -38.076
1576.3800, -38.370
1576.3900, -38.329
1576.4000, -37.926
1576.4100, -37.827
1576.4200, -37.901
1576.4300, -38.173
1576.4400, -37.867
1576.4500, -37.674
1576.4600, -38.189
1576.4700, -38.013
1576.4800, -38.053
1576.4900, -38.125
1576.5000, -38.129
1576.5100, -38.270
1576.5200, -38.187
1576.5300, -38.124
1576.5400, -38.554
1576.5500, -38.156
1576.5600, -38.224
1576.5700, -38.375
1576.5800, -38.526
1576.5900, -38.120
1576.6000, -38.438
1576.6100, -38.385
1576.6200, -38.532
1576.6300, -38.486
1576.6400, -38.264
1576.6500, -38.284
1576.6600, -38.070
1576.6700, -38.212
1576.6800, -38.759
1576.6900, -38.030
1576.7000, -38.384
1576.7100, -38.528
1576.7200, -38.784
1576.7300, -38.721
1576.7400, -38.544
1576.7500, -38.997
1576.7600, -38.619
1576.7700, -38.262
1576.7800, -38.277
1576.7900, -38.676
1576.8000, -38.669
1576.8100, -38.966
1576.8200, -38.761
1576.8300, -38.490
1576.8400, -38.506
1576.8500, -38.663
1576.8600, -38.645
1576.8700, -38.489
1576.8800, -38.559
1576.8900, -38.452
1576.9000, -38.357
1576.9100, -38.627
1576.9200, -38.455
1576.9300, -38.407
1576.9400, -38.262
1576.9500, -38.543
1576.9600, -38.269
1576.9700, -38.398
1576.9800, -38.826
1576.9900, -38.568
1577.0000, -38.698
1577.0100, -38.731
1577.0200, -38.401
1577.0300, -38.716
1577.0400, -39.092
1577.0500, -38.925
1577.0600, -38.819
1577.0700, -38.541
1577.0800, -38.677
1577.0900, -38.646
1577.1000, -38.704
1577.1100, -38.615
1577.1200, -38.460
1577.1300, -38.810
1577.1400, -38.510
1577.1500, -38.553
1577.1600, -38.679
1577.1700, -38.778
1577.1800, -38.419
1577.1900, -38.634
1577.2000, -38.527
1577.2100, -38.898
1577.2200, -38.842
1577.2300, -38.497
1577.2400, -38.877
1577.2500, -38.545
1577.2600, -38.347
1577.2700, -38.707
1577.2800, -38.683
1577.2900, -38.682
1577.3000, -38.665
1577.3100, -38.646
1577.3200, -38.683
1577.3300, -38.696
1577.3400, -38.704
1577.3500, -38.520
1577.3600, -38.818
1577.3700, -38.835
1577.3800, -38.913
1577.3900, -38.789
1577.4000, -38.329
1577.4100, -38.822
1577.4200, -38.911
1577.4300, -38.493
1577.4400, -38.412
1577.4500, -38.644
1577.4600, -38.717
1577.4700, -38.535
1577.4800, -38.426
1577.4900, -38.306
1577.5000, -38.492
1577.5100, -38.309
1577.5200, -38.301
1577.5300, -38.054
1577.5400, -38.229
1577.5500, -38.528
1577.5600, -38.369
1577.5700, -38.149
1577.5800, -38.447
1577.5900, -38.443
1577.6000, -38.252
1577.6100, -38.453
1577.6200, -38.008
1577.6300, -38.043
1577.6400, -38.030
1577.6500, -37.822
1577.6600, -37.883
1577.6700, -37.953
1577.6800, -37.975
1577.6900, -37.679
1577.7000, -37.748
1577.7100, -37.670
1577.7200, -37.904
1577.7300, -38.014
1577.7400, -37.464
1577.7500, -37.419
1577.7600, -37.596
1577.7700, -37.458
1577.7800, -37.403
1577.7900, -37.312
1577.8000, -37.179
1577.8100, -37.084
1577.8200, -37.417
1577.8300, -36.967
1577.8400, -36.834
1577.8500, -36.728
1577.8600, -36.771
1577.8700, -36.821
1577.8800, -36.828
1577.8900, -36.617
1577.9000, -36.588
1577.9100, -36.638
1577.9200, -36.741
1577.9300, -36.399
1577.9400, -36.175
1577.9500, -36.085
1577.9600, -36.244
1577.9700, -36.037
1577.9800, -36.029
1577.9900, -36.016
1578.0000, -36.132
1578.0100, -36.233
1578.0200, -35.869
1578.0300, -36.007
1578.0400, -35.673
1578.0500, -35.800
1578.0600, -35.899
1578.0700, -36.221
1578.0800, -36.084
1578.0900, -36.233
1578.1000, -36.163
1578.1100, -36.056
1578.1200, -36.346
1578.1300, -36.590
1578.1400, -36.660
1578.1500, -36.610
1578.1600, -36.877
1578.1700, -37.074
1578.1800, -37.087
1578.1900, -37.290
1578.2000, -38.034
1578.2100, -38.582
1578.2200, -38.425
1578.2300, -38.712
1578.2400, -38.967
1578.2500, -39.576
1578.2600, -40.073
1578.2700, -39.869
1578.2800, -40.568
1578.2900, -40.849
1578.3000, -41.124
1578.3100, -41.649
1578.3200, -42.215
1578.3300, -42.409
1578.3400, -42.990
1578.3500, -43.463
1578.3600, -44.007
1578.3700, -44.784
1578.3800, -45.517
1578.3900, -45.667
1578.4000, -46.023
1578.4100, -46.313
1578.4200, -46.968
1578.4300, -47.670
1578.4400, -48.040
1578.4500, -48.500
1578.4600, -49.037
1578.4700, -49.583
1578.4800, -50.065
1578.4900, -50.302
1578.5000, -50.870
1578.5100, -50.887
1578.5200, -51.222
1578.5300, -51.740
1578.5400, -52.142
1578.5500, -52.286
1578.5600, -52.277
1578.5700, -52.549
1578.5800, -52.633
1578.5900, -52.639
1578.6000, -52.590
1578.6100, -52.778
1578.6200, -52.585
1578.6300, -52.462
1578.6400, -52.382
1578.6500, -52.312
1578.6600, -52.537
1578.6700, -51.969
1578.6800, -51.839
1578.6900, -51.641
1578.7000, -51.822
1578.7100, -51.471
1578.7200, -51.288
1578.7300, -51.570
1578.7400, -51.309
1578.7500, -51.062
1578.7600, -51.191
1578.7700, -51.149
1578.7800, -51.147
1578.7900, -50.514
1578.8000, -50.480
1578.8100, -50.434
1578.8200, -50.249
1578.8300, -50.260
1578.8400, -50.179
1578.8500, -50.317
1578.8600, -50.074
1578.8700, -49.950
1578.8800, -50.032
1578.8900, -49.826
1578.9000, -49.704
1578.9100, -49.544
1578.9200, -49.577
1578.9300, -49.513
1578.9400, -49.520
1578.9500, -49.457
1578.9600, -49.391
1578.9700, -49.326
1578.9800, -49.508
1578.9900, -49.609
1579.0000, -49.292
1579.0100, -49.308
1579.0200, -49.109
1579.0300, -49.003
1579.0400, -48.739
1579.0500, -48.938
1579.0600, -48.861
1579.0700, -48.940
1579.0800, -48.789
1579.0900, -48.855
1579.1000, -48.838
1579.1100, -48.808
1579.1200, -48.904
1579.1300, -48.819
1579.1400, -48.897
1579.1500, -48.889
1579.1600, -48.924
1579.1700, -48.728
1579.1800, -48.521
1579.1900, -48.682
1579.2000, -48.673
1579.2100, -48.764
1579.2200, -48.740
1579.2300, -48.579
1579.2400, -48.382
1579.2500, -48.738
1579.2600, -48.475
1579.2700, -48.704
1579.2800, -48.491
1579.2900, -48.603
1579.3000, -48.443
1579.3100, -48.259
1579.3200, -48.346
1579.3300, -48.383
1579.3400, -48.515
1579.3500, -48.359
1579.3600, -48.647
1579.3700, -48.588
1579.3800, -48.575
1579.3900, -48.486
1579.4000, -48.664
1579.4100, -48.406
1579.4200, -48.970
1579.4300, -48.571
1579.4400, -48.365
1579.4500, -48.408
1579.4600, -48.328
1579.4700, -48.554
1579.4800, -48.480
1579.4900, -48.416
1579.5000, -48.367
1579.5100, -48.629
1579.5200, -48.434
1579.5300, -48.283
1579.5400, -48.328
1579.5500, -48.412
1579.5600, -48.605
1579.5700, -48.732
1579.5800, -48.600
1579.5900, -48.562
1579.6000, -48.694
1579.6100, -48.304
1579.6200, -48.290
1579.6300, -48.491
1579.6400, -48.304
1579.6500, -48.218
1579.6600, -48.358
1579.6700, -48.391
1579.6800, -48.436
1579.6900, -48.433
1579.7000, -48.391
1579.7100, -48.372
1579.7200, -48.431
1579.7300, -48.466
1579.7400, -48.369
1579.7500, -48.310
1579.7600, -48.261
1579.7700, -48.269
1579.7800, -48.590
1579.7900, -48.521
1579.8000, -48.445
1579.8100, -48.666
1579.8200, -48.380
1579.8300, -48.421
1579.8400, -48.374
1579.8500, -48.403
1579.8600, -48.418
1579.8700, -48.362
1579.8800, -48.583
1579.8900, -48.750
1579.9000, -48.467
1579.9100, -48.351
1579.9200, -48.814
1579.9300, -48.559
1579.9400, -48.807
1579.9500, -48.735
1579.9600, -48.558
1579.9700, -48.568
1579.9800, -48.583
1579.9900, -48.589
1580.0000, -48.725
1580.0100, -48.755
1580.0200, -48.978
1580.0300, -48.606
1580.0400, -48.534
1580.0500, -48.604
1580.0600, -48.671
1580.0700, -48.580
1580.0800, -48.649
1580.0900, -48.538
1580.1000, -48.675
1580.1100, -48.764
1580.1200, -48.828
1580.1300, -48.852
1580.1400, -48.818
1580.1500, -48.681
1580.1600, -48.929
1580.1700, -48.808
1580.1800, -49.065
1580.1900, -48.638
1580.2000, -48.972
1580.2100, -49.014
1580.2200, -48.721
1580.2300, -48.995
1580.2400, -48.884
1580.2500, -48.993
1580.2600, -48.767
1580.2700, -48.751
1580.2800, -48.809
1580.2900, -48.891
1580.3000, -48.883
1580.3100, -48.856
1580.3200, -49.095
1580.3300, -49.272
1580.3400, -49.030
1580.3500, -49.009
1580.3600, -48.879
1580.3700, -49.077
1580.3800, -48.953
1580.3900, -49.077
1580.4000, -49.128
1580.4100, -49.444
1580.4200, -49.257
1580.4300, -49.112
1580.4400, -49.126
1580.4500, -49.288
1580.4600, -49.266
1580.4700, -49.332
1580.4800, -49.095
1580.4900, -49.252
1580.5000, -49.293
1580.5100, -49.253
1580.5200, -49.178
1580.5300, -49.207
1580.5400, -49.205
1580.5500, -49.232
1580.5600, -49.331
1580.5700, -49.328
1580.5800, -49.274
1580.5900, -49.187
1580.6000, -49.125
1580.6100, -49.407
1580.6200, -49.588
1580.6300, -49.309
1580.6400, -49.417
1580.6500, -49.224
1580.6600, -49.369
1580.6700, -49.661
1580.6800, -49.700
1580.6900, -49.543
1580.7000, -49.496
1580.7100, -49.647
1580.7200, -49.293
1580.7300, -49.326
1580.7400, -49.539
1580.7500, -49.630
1580.7600, -49.543
1580.7700, -49.541
1580.7800, -49.668
1580.7900, -49.601
1580.8000, -49.713
1580.8100, -49.605
1580.8200, -49.653
1580.8300, -49.540
1580.8400, -49.486
1580.8500, -49.938
1580.8600, -49.892
1580.8700, -49.787
1580.8800, -49.653
1580.8900, -49.610
1580.9000, -49.686
1580.9100, -50.132
1580.9200, -49.764
1580.9300, -49.785
1580.9400, -49.829
1580.9500, -49.617
1580.9600, -49.847
1580.9700, -49.909
1580.9800, -49.785
1580.9900, -49.947
1581.0000, -49.803
1581.0100, -50.114
1581.0200, -49.796
1581.0300, -49.748
1581.0400, -49.624
1581.0500, -49.934
1581.0600, -49.837
1581.0700, -49.943
1581.0800, -49.817
1581.0900, -49.669
1581.1000, -49.959
1581.1100, -50.042
1581.1200, -50.030
1581.1300, -49.975
1581.1400, -49.763
1581.1500, -50.117
1581.1600, -50.107
1581.1700, -49.946
1581.1800, -50.049
1581.1900, -50.076
1581.2000, -50.055
1581.2100, -50.223
1581.2200, -50.141
1581.2300, -50.089
1581.2400, -49.981
1581.2500, -49.965
1581.2600, -50.071
1581.2700, -50.069
1581.2800, -50.332
1581.2900, -50.238
1581.3000, -49.988
1581.3100, -50.147
1581.3200, -50.197
1581.3300, -50.250
1581.3400, -50.335
1581.3500, -50.285
1581.3600, -50.106
1581.3700, -50.144
1581.3800, -50.100
1581.3900, -50.184
1581.4000, -50.476
1581.4100, -50.273
1581.4200, -50.204
1581.4300, -50.307
1581.4400, -50.203
1581.4500, -50.220
1581.4600, -50.202
1581.4700, -50.184
1581.4800, -50.163
1581.4900, -50.273
1581.5000, -50.238
1581.5100, -50.106
1581.5200, -50.175
1581.5300, -50.300
1581.5400, -50.334
1581.5500, -50.291
1581.5600, -50.339
1581.5700, -50.201
1581.5800, -50.276
1581.5900, -50.387
1581.6000, -50.441
1581.6100, -50.443
1581.6200, -50.263
1581.6300, -50.308
1581.6400, -50.261
1581.6500, -50.518
1581.6600, -50.566
1581.6700, -50.424
1581.6800, -50.474
1581.6900, -50.375
1581.7000, -50.421
1581.7100, -50.714
1581.7200, -50.540
1581.7300, -50.401
1581.7400, -50.524
1581.7500, -50.356
1581.7600, -50.360
1581.7700, -50.467
1581.7800, -50.525
1581.7900, -50.419
1581.8000, -50.247
1581.8100, -50.473
1581.8200, -50.448
1581.8300, -50.367
1581.8400, -50.510
1581.8500, -50.348
1581.8600, -50.350
1581.8700, -50.414
1581.8800, -50.618
1581.8900, -50.466
1581.9000, -50.507
1581.9100, -50.417
1581.9200, -50.566
1581.9300, -50.435
1581.9400, -50.484
1581.9500, -50.520
1581.9600, -50.525
1581.9700, -50.579
1581.9800, -50.564
1581.9900, -50.338
1582.0000, -50.305
1582.0100, -50.528
1582.0200, -50.443
1582.0300, -50.416
1582.0400, -50.361
1582.0500, -50.519
1582.0600, -50.491
1582.0700, -50.249
1582.0800, -50.413
1582.0900, -50.314
1582.1000, -50.234
1582.1100, -50.163
1582.1200, -50.239
1582.1300, -50.340
1582.1400, -50.450
1582.1500, -50.365
1582.1600, -50.500
1582.1700, -50.244
1582.1800, -50.293
1582.1900, -50.353
1582.2000, -50.387
1582.2100, -50.346
1582.2200, -50.297
1582.2300, -50.304
1582.2400, -50.203
1582.2500, -50.184
1582.2600, -50.113
1582.2700, -50.170
1582.2800, -50.178
1582.2900, -50.133
1582.3000, -49.915
1582.3100, -50.091
1582.3200, -50.070
1582.3300, -50.048
1582.3400, -50.225
1582.3500, -50.197
1582.3600, -50.022
1582.3700, -50.051
1582.3800, -49.971
1582.3900, -49.985
1582.4000, -49.895
1582.4100, -49.891
1582.4200, -49.845
1582.4300, -49.822
1582.4400, -49.840
1582.4500, -49.797
1582.4600, -49.891
1582.4700, -49.822
1582.4800, -49.927
1582.4900, -49.716
1582.5000, -49.618
1582.5100, -49.684
1582.5200, -49.761
1582.5300, -49.620
1582.5400, -49.483
1582.5500, -49.548
1582.5600, -49.356
1582.5700, -49.340
1582.5800, -49.354
1582.5900, -49.287
1582.6000, -49.185
1582.6100, -49.133
1582.6200, -49.244
1582.6300, -49.163
1582.6400, -48.876
1582.6500, -48.903
1582.6600, -48.904
1582.6700, -48.948
1582.6800, -48.903
1582.6900, -48.866
1582.7000, -48.655
1582.7100, -48.745
1582.7200, -48.560
1582.7300, -48.435
1582.7400, -48.371
1582.7500, -48.190
1582.7600, -48.314
1582.7700, -48.252
1582.7800, -48.037
1582.7900, -48.037
1582.8000, -48.094
1582.8100, -47.655
1582.8200, -47.538
1582.8300, -47.416
1582.8400, -47.262
1582.8500, -47.319
1582.8600, -47.182
1582.8700, -47.090
1582.8800, -46.748
1582.8900, -46.744
1582.9000, -46.567
1582.9100, -46.359
1582.9200, -46.171
1582.9300, -46.197
1582.9400, -46.049
1582.9500, -45.705
1582.9600, -45.525
1582.9700, -45.433
1582.9800, -45.084
1582.9900, -44.809
1583.0000, -44.870
1583.0100, -44.672
1583.0200, -44.498
1583.0300, -44.428
1583.0400, -44.046
1583.0500, -43.884
1583.0600, -43.669
1583.0700, -43.695
1583.0800, -43.631
1583.0900, -43.269
1583.1000, -43.057
1583.1100, -42.847
1583.1200, -42.643
1583.1300, -42.463
1583.1400, -42.509
1583.1500, -42.372
1583.1600, -42.344
1583.1700, -42.469
1583.1800, -42.121
1583.1900, -42.273
1583.2000, -42.087
1583.2100, -42.157
1583.2200, -42.206
1583.2300, -42.273
1583.2400, -42.282
1583.2500, -42.521
1583.2600, -42.598
1583.2700, -42.688
1583.2800, -42.736
1583.2900, -43.035
1583.3000, -43.287
1583.3100, -43.387
1583.3200, -43.758
1583.3300, -43.862
1583.3400, -44.124
1583.3500, -44.633
1583.3600, -45.000
1583.3700, -45.216
1583.3800, -45.530
1583.3900, -46.090
1583.4000, -46.322
1583.4100, -46.802
1583.4200, -47.223
1583.4300, -47.474
1583.4400, -47.896
1583.4500, -48.623
1583.4600, -49.134
1583.4700, -49.230
1583.4800, -49.719
1583.4900, -50.095
1583.5000, -50.719
1583.5100, -51.174
1583.5200, -51.495
1583.5300, -51.930
1583.5400, -52.482
1583.5500, -52.911
1583.5600, -53.470
1583.5700, -54.009
1583.5800, -54.290
1583.5900, -54.857
1583.6000, -55.333
1583.6100, -55.857
1583.6200, -56.290
1583.6300, -56.654
1583.6400, -57.066
1583.6500, -57.646
1583.6600, -57.950
1583.6700, -58.334
1583.6800, -58.394
1583.6900, -59.192
1583.7000, -59.626
1583.7100, -60.438
1583.7200, -60.808
1583.7300, -60.737
1583.7400, -61.020
1583.7500, -61.347
1583.7600, -61.894
1583.7700, -61.711
1583.7800, -62.141
1583.7900, -62.404
1583.8000, -63.126
1583.8100, -63.366
1583.8200, -63.342
1583.8300, -63.716
1583.8400, -64.171
1583.8500, -63.838
1583.8600, -65.234
1583.8700, -65.777
1583.8800, -66.478
1583.8900, -66.978
1583.9000, -65.914
1583.9100, -66.479
1583.9200, -66.569
1583.9300, -67.256
1583.9400, -66.541
1583.9500, -66.573
1583.9600, -66.891
1583.9700, -66.823
1583.9800, -67.431
1583.9900, -66.396
1584.0000, -67.188
1584.0100, -69.059
1584.0200, -66.941
1584.0300, -71.074
1584.0400, -69.941
1584.0500, -68.528
1584.0600, -68.074
1584.0700, -72.055
1584.0800, -70.268
1584.0900, -69.834
1584.1000, -69.358
1584.1100, -67.814
1584.1200, -66.867
1584.1300, -67.137
1584.1400, -70.577
1584.1500, -69.531
1584.1600, -67.902
1584.1700, -67.549
1584.1800, -67.467
1584.1900, -67.692
1584.2000, -69.898
1584.2100, -67.705
1584.2200, -67.957
1584.2300, -68.118
1584.2400, -67.154
1584.2500, -67.008
1584.2600, -67.967
1584.2700, -66.899
1584.2800, -66.567
1584.2900, -69.024
1584.3000, -69.689
1584.3100, -68.924
1584.3200, -68.186
1584.3300, -66.907
1584.3400, -71.078
1584.3500, -66.342
1584.3600, -69.013
1584.3700, -70.365
1584.3800, -67.286
1584.3900, -65.234
1584.4000, -67.077
1584.4100, -66.098
1584.4200, -68.427
1584.4300, -66.684
1584.4400, -66.490
1584.4500, -67.472
1584.4600, -66.985
1584.4700, -65.351
1584.4800, -67.864
1584.4900, -66.141
1584.5000, -66.465
1584.5100, -66.089
1584.5200, -65.160
1584.5300, -65.308
1584.5400, -67.000
1584.5500, -64.945
1584.5600, -68.018
1584.5700, -64.424
1584.5800, -65.894
1584.5900, -66.511
1584.6000, -66.991
1584.6100, -65.029
1584.6200, -66.748
1584.6300, -64.915
1584.6400, -64.749
1584.6500, -65.477
1584.6600, -65.470
1584.6700, -65.815
1584.6800, -65.401
1584.6900, -65.612
1584.7000, -64.657
1584.7100, -65.862
1584.7200, -65.991
1584.7300, -65.585
1584.7400, -64.480
1584.7500, -64.986
1584.7600, -65.552
1584.7700, -64.958
1584.7800, -65.684
1584.7900, -65.878
1584.8000, -64.128
1584.8100, -65.256
1584.8200, -64.889
1584.8300, -64.276
1584.8400, -64.708
1584.8500, -65.036
1584.8600, -64.904
1584.8700, -65.249
1584.8800, -64.639
1584.8900, -64.734
1584.9000, -64.308
1584.9100, -64.548
1584.9200, -64.888
1584.9300, -63.702
1584.9400, -65.407
1584.9500, -65.205
1584.9600, -64.297
1584.9700, -63.563
1584.9800, -63.836
1584.9900, -65.017
1585.0000, -64.124
1585.0100, -65.186
1585.0200, -64.808
1585.0300, -64.857
1585.0400, -65.112
1585.0500, -65.533
1585.0600, -65.324
1585.0700, -64.147
1585.0800, -64.173
1585.0900, -65.184
1585.1000, -64.080
1585.1100, -64.255
1585.1200, -64.757
1585.1300, -65.779
1585.1400, -64.627
1585.1500, -64.163
1585.1600, -63.730
1585.1700, -64.237
1585.1800, -64.146
1585.1900, -64.507
1585.2000, -64.078
1585.2100, -64.401
1585.2200, -63.550
1585.2300, -64.711
1585.2400, -63.963
1585.2500, -63.700
1585.2600, -63.380
1585.2700, -63.981
1585.2800, -64.031
1585.2900, -64.709
1585.3000, -64.119
1585.3100, -63.859
1585.3200, -63.793
1585.3300, -64.232
1585.3400, -64.207
1585.3500, -64.221
1585.3600, -63.641
1585.3700, -63.446
1585.3800, -63.069
1585.3900, -64.249
1585.4000, -63.445
1585.4100, -63.385
1585.4200, -63.822
1585.4300, -63.642
1585.4400, -63.578
1585.4500, -63.321
1585.4600, -63.472
1585.4700, -63.130
1585.4800, -63.851
1585.4900, -63.648
1585.5000, -62.771
1585.5100, -63.262
1585.5200, -63.602
1585.5300, -63.144
1585.5400, -63.454
1585.5500, -63.580
1585.5600, -63.173
1585.5700, -63.681
1585.5800, -63.191
1585.5900, -62.447
1585.6000, -63.563
1585.6100, -63.654
1585.6200, -63.177
1585.6300, -63.797
1585.6400, -63.628
1585.6500, -64.046
1585.6600, -63.255
1585.6700, -63.129
1585.6800, -63.212
1585.6900, -62.971
1585.7000, -63.460
1585.7100, -62.828
1585.7200, -63.146
1585.7300, -63.117
1585.7400, -63.470
1585.7500, -62.752
1585.7600, -63.310
1585.7700, -62.825
1585.7800, -62.599
1585.7900, -62.386
1585.8000, -62.820
1585.8100, -62.921
1585.8200, -62.240
1585.8300, -63.344
1585.8400, -62.652
1585.8500, -62.333
1585.8600, -62.783
1585.8700, -62.790
1585.8800, -62.022
1585.8900, -62.644
1585.9000, -62.418
1585.9100, -63.046
1585.9200, -63.009
1585.9300, -62.045
1585.9400, -62.409
1585.9500, -62.443
1585.9600, -62.131
1585.9700, -61.894
1585.9800, -61.717
1585.9900, -61.723
1586.0000, -62.169
1586.0100, -62.257
1586.0200, -62.254
1586.0300, -62.013
1586.0400, -61.977
1586.0500, -62.094
1586.0600, -62.094
1586.0700, -61.627
1586.0800, -61.637
1586.0900, -61.807
1586.1000, -61.326
1586.1100, -61.485
1586.1200, -61.669
1586.1300, -61.120
1586.1400, -61.415
1586.1500, -61.279
1586.1600, -61.588
1586.1700, -61.282
1586.1800, -61.324
1586.1900, -61.275
1586.2000, -61.319
1586.2100, -61.334
1586.2200, -60.977
1586.2300, -60.824
1586.2400, -60.683
1586.2500, -60.882
1586.2600, -61.179
1586.2700, -60.087
1586.2800, -60.549
1586.2900, -60.377
1586.3000, -60.543
1586.3100, -60.301
1586.3200, -59.983
1586.3300, -60.274
1586.3400, -60.105
1586.3500, -59.510
1586.3600, -59.620
1586.3700, -59.576
1586.3800, -59.639
1586.3900, -59.305
1586.4000, -59.296
1586.4100, -58.943
1586.4200, -58.889
1586.4300, -58.744
1586.4400, -58.903
1586.4500, -58.508
1586.4600, -58.771
1586.4700, -58.385
1586.4800, -58.099
1586.4900, -57.960
1586.5000, -57.807
1586.5100, -57.433
1586.5200, -57.482
1586.5300, -57.201
1586.5400, -56.881
1586.5500, -56.758
1586.5600, -56.601
1586.5700, -56.210
1586.5800, -56.069
1586.5900, -55.845
1586.6000, -55.547
1586.6100, -55.332
1586.6200, -55.143
1586.6300, -54.878
1586.6400, -54.676
1586.6500, -54.432
1586.6600, -54.096
1586.6700, -53.744
1586.6800, -53.649
1586.6900, -53.380
1586.7000, -53.151
1586.7100, -52.662
1586.7200, -52.683
1586.7300, -52.310
1586.7400, -52.149
1586.7500, -51.901
1586.7600, -51.717
1586.7700, -51.563
1586.7800, -51.452
1586.7900, -51.189
1586.8000, -51.030
1586.8100, -50.996
1586.8200, -50.751
1586.8300, -50.635
1586.8400, -50.618
1586.8500, -50.717
1586.8600, -50.475
1586.8700, -50.551
1586.8800, -50.559
1586.8900, -50.752
1586.9000, -50.852
1586.9100, -50.761
1586.9200, -51.073
1586.9300, -51.391
1586.9400, -51.726
1586.9500, -51.705
1586.9600, -52.126
1586.9700, -52.446
1586.9800, -52.657
1586.9900, -53.118
1587.0000, -53.433
1587.0100, -53.808
1587.0200, -54.182
1587.0300, -54.517
1587.0400, -54.875
1587.0500, -55.101
1587.0600, -55.721
1587.0700, -56.531
1587.0800, -56.694
1587.0900, -56.772
1587.1000, -57.408
1587.1100, -57.829
1587.1200, -57.920
1587.1300, -58.701
1587.1400, -59.332
1587.1500, -59.358
1587.1600, -59.804
1587.1700, -60.216
1587.1800, -60.688
1587.1900, -61.128
1587.2000, -61.701
1587.2100, -61.374
1587.2200, -62.130
1587.2300, -62.059
1587.2400, -62.463
1587.2500, -63.106
1587.2600, -63.158
1587.2700, -64.047
1587.2800, -64.127
1587.2900, -64.725
1587.3000, -65.209
1587.3100, -64.780
1587.3200, -65.166
1587.3300, -65.963
1587.3400, -66.614
1587.3500, -66.118
1587.3600, -67.585
1587.3700, -67.691
1587.3800, -66.445
1587.3900, -67.924
1587.4000, -67.348
1587.4100, -69.544
1587.4200, -68.390
1587.4300, -72.409
1587.4400, -67.154
1587.4500, -66.632
1587.4600, -69.941
1587.4700, -68.679
1587.4800, -67.397
1587.4900, -66.401
1587.5000, -69.493
1587.5100, -71.839
1587.5200,-210.000
1587.5300, -71.639
1587.5400, -70.067
1587.5500, -72.294
1587.5600, -76.843
1587.5700, -76.585
1587.5800, -68.812
1587.5900, -67.445
1587.6000, -74.297
1587.6100, -78.064
1587.6200, -71.410
1587.6300, -72.126
1587.6400, -75.308
1587.6500, -79.074
1587.6600, -71.115
1587.6700,-210.000
1587.6800, -77.723
1587.6900, -80.741
1587.7000, -72.095
1587.7100, -72.371
1587.7200, -70.027
1587.7300, -72.307
1587.7400, -71.160
1587.7500, -70.138
1587.7600, -69.234
1587.7700, -68.993
1587.7800, -73.334
1587.7900, -76.543
1587.8000, -74.244
1587.8100, -76.031
1587.8200, -70.024
1587.8300, -75.349
1587.8400, -74.652
1587.8500,-210.000
1587.8600,-210.000
1587.8700, -79.942
1587.8800, -75.440
1587.8900, -74.391
1587.9000, -70.430
1587.9100, -74.644
1587.9200, -77.941
1587.9300, -75.540
1587.9400, -85.998
1587.9500, -68.904
1587.9600,-210.000
1587.9700,-210.000
1587.9800, -74.984
1587.9900, -74.926
1588.0000, -75.101
1588.0100,-210.000
1588.0200,-210.000
1588.0300, -72.461
1588.0400, -69.241
1588.0500, -76.050
1588.0600,-210.000
1588.0700, -78.296
1588.0800,-210.000
1588.0900, -74.811
1588.1000, -94.024
1588.1100,-210.000
1588.1200, -71.274
1588.1300, -78.172
1588.1400, -71.940
1588.1500, -72.657
1588.1600, -73.084
1588.1700, -70.181
1588.1800,-210.000
1588.1900,-210.000
1588.2000,-210.000
1588.2100, -70.939
1588.2200,-210.000
1588.2300, -74.435
1588.2400, -70.244
1588.2500,-210.000
1588.2600,-210.000
1588.2700,-210.000
1588.2800, -77.934
1588.2900, -73.825
1588.3000, -70.327
1588.3100, -71.292
1588.3200,-210.000
1588.3300, -71.630
1588.3400,-210.000
1588.3500, -70.628
1588.3600,-210.000
1588.3700, -74.535
1588.3800, -76.177
1588.3900, -76.168
1588.4000, -74.330
1588.4100, -74.804
1588.4200, -70.358
1588.4300, -69.962
1588.4400, -72.230
1588.4500, -72.789
1588.4600, -77.078
1588.4700,-210.000
1588.4800, -72.419
1588.4900, -74.973
1588.5000, -68.642
1588.5100, -75.150
1588.5200, -74.480
1588.5300, -71.707
1588.5400, -81.182
1588.5500,-210.000
1588.5600,-210.000
1588.5700,-210.000
1588.5800, -76.600
1588.5900, -73.151
1588.6000,-210.000
1588.6100, -75.526
1588.6200, -71.191
1588.6300, -74.426
1588.6400, -79.749
1588.6500,-210.000
1588.6600, -71.759
1588.6700, -76.240
1588.6800,-210.000
1588.6900, -71.928
1588.7000, -73.936
1588.7100, -72.044
1588.7200, -70.929
1588.7300, -68.650
1588.7400, -75.009
1588.7500, -78.040
1588.7600, -74.527
1588.7700,-210.000
1588.7800, -72.072
1588.7900,-210.000
1588.8000, -72.782
1588.8100, -70.905
1588.8200, -71.091
1588.8300, -69.840
1588.8400, -75.328
1588.8500,-210.000
1588.8600, -80.504
1588.8700, -74.966
1588.8800,-210.000
1588.8900, -73.145
1588.9000, -76.313
1588.9100, -73.420
1588.9200, -72.720
1588.9300, -72.732
1588.9400,-210.000
1588.9500,-210.000
1588.9600,-210.000
1588.9700, -71.485
1588.9800, -73.298
1588.9900, -78.154
1589.0000, -69.511
1589.0100, -78.667
1589.0200, -73.181
1589.0300, -70.005
1589.0400,-210.000
1589.0500, -73.583
1589.0600, -81.172
1589.0700, -78.666
1589.0800, -71.695
1589.0900, -73.376
1589.1000, -76.505
1589.1100,-210.000
1589.1200, -74.366
1589.1300, -77.278
1589.1400, -76.636
1589.1500, -73.497
1589.1600, -79.739
1589.1700,-210.000
1589.1800, -85.296
1589.1900, -72.185
1589.2000, -86.773
1589.2100,-210.000
1589.2200, -70.526
1589.2300,-210.000
1589.2400, -71.888
1589.2500, -78.943
1589.2600, -72.851
1589.2700, -80.100
1589.2800,-210.000
1589.2900,-210.000
1589.3000, -69.423
1589.3100, -73.750
1589.3200,-210.000
1589.3300, -80.707
1589.3400,-210.000
1589.3500, -74.773
1589.3600, -74.068
1589.3700,-210.000
1589.3800,-210.000
1589.3900,-210.000
1589.4000,-210.000
1589.4100, -76.072
1589.4200, -73.492
1589.4300,-210.000
1589.4400, -75.316
1589.4500, -72.699
1589.4600,-210.000
1589.4700, -81.927
1589.4800,-210.000
1589.4900,-210.000
1589.5000,-210.000
